test_ang_tranf.exe: 2016- 6- 1 15:34:54
#2theta theta omega gamma alpha beta
3.4840 1.7420 90.0000 0.0000 88.2580 0.0000 0
3.4840 1.7420 90.0000 5.0000 88.2580 5.0000 1
3.4840 1.7420 90.0000 10.0000 88.2580 10.0000 2
3.4840 1.7420 90.0000 15.0000 88.2580 15.0000 3
3.4840 1.7420 90.0000 20.0000 88.2580 20.0000 4
3.4840 1.7420 90.0000 25.0000 88.2580 25.0000 5
3.4840 1.7420 90.0000 30.0000 88.2580 30.0000 6
3.4840 1.7420 90.0000 35.0000 88.2580 35.0000 7
3.4840 1.7420 90.0000 40.0000 88.2580 40.0000 8
3.4840 1.7420 90.0000 45.0000 88.2580 45.0000 9
3.4840 1.7420 90.0000 50.0000 88.2580 50.0000 10
3.4840 1.7420 90.0000 55.0000 88.2580 55.0000 11
3.4840 1.7420 90.0000 60.0000 88.2580 60.0000 12
3.4840 1.7420 90.0000 65.0000 88.2580 65.0000 13
3.4840 1.7420 90.0000 70.0000 88.2580 70.0000 14
3.4840 1.7420 90.0000 75.0000 88.2580 75.0000 15
3.4840 1.7420 90.0000 80.0000 88.2580 80.0000 16
3.4840 1.7420 90.0000 85.0000 88.2580 85.0000 17
3.4840 1.7420 90.0000 90.0000 88.2580 90.0000 18
3.4840 1.7420 90.0000 95.0000 88.2580 95.0000 19
3.4840 1.7420 90.0000 100.0000 88.2580 100.0000 20
3.4840 1.7420 90.0000 105.0000 88.2580 105.0000 21
3.4840 1.7420 90.0000 110.0000 88.2580 110.0000 22
3.4840 1.7420 90.0000 115.0000 88.2580 115.0000 23
3.4840 1.7420 90.0000 120.0000 88.2580 120.0000 24
3.4840 1.7420 90.0000 125.0000 88.2580 125.0000 25
3.4840 1.7420 90.0000 130.0000 88.2580 130.0000 26
3.4840 1.7420 90.0000 135.0000 88.2580 135.0000 27
3.4840 1.7420 90.0000 140.0000 88.2580 140.0000 28
3.4840 1.7420 90.0000 145.0000 88.2580 145.0000 29
3.4840 1.7420 90.0000 150.0000 88.2580 150.0000 30
3.4840 1.7420 90.0000 155.0000 88.2580 155.0000 31
3.4840 1.7420 90.0000 160.0000 88.2580 160.0000 32
3.4840 1.7420 90.0000 165.0000 88.2580 165.0000 33
3.4840 1.7420 90.0000 170.0000 88.2580 170.0000 34
3.4840 1.7420 90.0000 175.0000 88.2580 175.0000 35
3.4840 1.7420 90.0000 180.0000 88.2580 -180.0000 36
3.4840 1.7420 90.0000 185.0000 88.2580 -175.0000 37
3.4840 1.7420 90.0000 190.0000 88.2580 -170.0000 38
3.4840 1.7420 90.0000 195.0000 88.2580 -165.0000 39
3.4840 1.7420 90.0000 200.0000 88.2580 -160.0000 40
3.4840 1.7420 90.0000 205.0000 88.2580 -155.0000 41
3.4840 1.7420 90.0000 210.0000 88.2580 -150.0000 42
3.4840 1.7420 90.0000 215.0000 88.2580 -145.0000 43
3.4840 1.7420 90.0000 220.0000 88.2580 -140.0000 44
3.4840 1.7420 90.0000 225.0000 88.2580 -135.0000 45
3.4840 1.7420 90.0000 230.0000 88.2580 -130.0000 46
3.4840 1.7420 90.0000 235.0000 88.2580 -125.0000 47
3.4840 1.7420 90.0000 240.0000 88.2580 -120.0000 48
3.4840 1.7420 90.0000 245.0000 88.2580 -115.0000 49
3.4840 1.7420 90.0000 250.0000 88.2580 -110.0000 50
3.4840 1.7420 90.0000 255.0000 88.2580 -105.0000 51
3.4840 1.7420 90.0000 260.0000 88.2580 -100.0000 52
3.4840 1.7420 90.0000 265.0000 88.2580 -95.0000 53
3.4840 1.7420 90.0000 270.0000 88.2580 -90.0000 54
3.4840 1.7420 90.0000 275.0000 88.2580 -85.0000 55
3.4840 1.7420 90.0000 280.0000 88.2580 -80.0000 56
3.4840 1.7420 90.0000 285.0000 88.2580 -75.0000 57
3.4840 1.7420 90.0000 290.0000 88.2580 -70.0000 58
3.4840 1.7420 90.0000 295.0000 88.2580 -65.0000 59
3.4840 1.7420 90.0000 300.0000 88.2580 -60.0000 60
3.4840 1.7420 90.0000 305.0000 88.2580 -55.0000 61
3.4840 1.7420 90.0000 310.0000 88.2580 -50.0000 62
3.4840 1.7420 90.0000 315.0000 88.2580 -45.0000 63
3.4840 1.7420 90.0000 320.0000 88.2580 -40.0000 64
3.4840 1.7420 90.0000 325.0000 88.2580 -35.0000 65
3.4840 1.7420 90.0000 330.0000 88.2580 -30.0000 66
3.4840 1.7420 90.0000 335.0000 88.2580 -25.0000 67
3.4840 1.7420 90.0000 340.0000 88.2580 -20.0000 68
3.4840 1.7420 90.0000 345.0000 88.2580 -15.0000 69
3.4840 1.7420 90.0000 350.0000 88.2580 -10.0000 70
3.4840 1.7420 90.0000 355.0000 88.2580 -5.0000 71

3.4840 1.7420 95.0000 0.0000 93.2580 0.0000 72
3.4840 1.7420 95.0000 5.0000 93.2390 5.0057 73
3.4840 1.7420 95.0000 10.0000 93.1821 10.0109 74
3.4840 1.7420 95.0000 15.0000 93.0877 15.0152 75
3.4840 1.7420 95.0000 20.0000 92.9565 20.0181 76
3.4840 1.7420 95.0000 25.0000 92.7897 25.0193 77
3.4840 1.7420 95.0000 30.0000 92.5884 30.0185 78
3.4840 1.7420 95.0000 35.0000 92.3542 35.0153 79
3.4840 1.7420 95.0000 40.0000 92.0890 40.0097 80
3.4840 1.7420 95.0000 45.0000 91.7946 45.0016 81
3.4840 1.7420 95.0000 50.0000 91.4734 49.9910 82
3.4840 1.7420 95.0000 55.0000 91.1279 54.9780 83
3.4840 1.7420 95.0000 60.0000 90.7606 59.9629 84
3.4840 1.7420 95.0000 65.0000 90.3743 64.9459 85
3.4840 1.7420 95.0000 70.0000 89.9720 69.9274 86
3.4840 1.7420 95.0000 75.0000 89.5567 74.9078 87
3.4840 1.7420 95.0000 80.0000 89.1316 79.8878 88
3.4840 1.7420 95.0000 85.0000 88.6998 84.8677 89
3.4840 1.7420 95.0000 90.0000 88.2646 89.8481 90
3.4840 1.7420 95.0000 95.0000 87.8294 94.8297 91
3.4840 1.7420 95.0000 100.0000 87.3973 99.8130 92
3.4840 1.7420 95.0000 105.0000 86.9716 104.7986 93
3.4840 1.7420 95.0000 110.0000 86.5557 109.7869 94
3.4840 1.7420 95.0000 115.0000 86.1526 114.7785 95
3.4840 1.7420 95.0000 120.0000 85.7654 119.7736 96
3.4840 1.7420 95.0000 125.0000 85.3970 124.7725 97
3.4840 1.7420 95.0000 130.0000 85.0504 129.7756 98
3.4840 1.7420 95.0000 135.0000 84.7280 134.7828 99
3.4840 1.7420 95.0000 140.0000 84.4325 139.7941 100
3.4840 1.7420 95.0000 145.0000 84.1661 144.8096 101
3.4840 1.7420 95.0000 150.0000 83.9309 149.8288 102
3.4840 1.7420 95.0000 155.0000 83.7287 154.8515 103
3.4840 1.7420 95.0000 160.0000 83.5610 159.8773 104
3.4840 1.7420 95.0000 165.0000 83.4292 164.9056 105
3.4840 1.7420 95.0000 170.0000 83.3344 169.9359 106
3.4840 1.7420 95.0000 175.0000 83.2771 174.9676 107
3.4840 1.7420 95.0000 180.0000 83.2580 -180.0000 108
3.4840 1.7420 95.0000 185.0000 83.2771 -174.9676 109
3.4840 1.7420 95.0000 190.0000 83.3344 -169.9359 110
3.4840 1.7420 95.0000 195.0000 83.4292 -164.9056 111
3.4840 1.7420 95.0000 200.0000 83.5610 -159.8773 112
3.4840 1.7420 95.0000 205.0000 83.7287 -154.8515 113
3.4840 1.7420 95.0000 210.0000 83.9309 -149.8288 114
3.4840 1.7420 95.0000 215.0000 84.1661 -144.8096 115
3.4840 1.7420 95.0000 220.0000 84.4325 -139.7941 116
3.4840 1.7420 95.0000 225.0000 84.7280 -134.7828 117
3.4840 1.7420 95.0000 230.0000 85.0504 -129.7756 118
3.4840 1.7420 95.0000 235.0000 85.3970 -124.7725 119
3.4840 1.7420 95.0000 240.0000 85.7654 -119.7736 120
3.4840 1.7420 95.0000 245.0000 86.1526 -114.7784 121
3.4840 1.7420 95.0000 250.0000 86.5557 -109.7869 122
3.4840 1.7420 95.0000 255.0000 86.9716 -104.7986 123
3.4840 1.7420 95.0000 260.0000 87.3973 -99.8130 124
3.4840 1.7420 95.0000 265.0000 87.8294 -94.8297 125
3.4840 1.7420 95.0000 270.0000 88.2646 -89.8481 126
3.4840 1.7420 95.0000 275.0000 88.6998 -84.8677 127
3.4840 1.7420 95.0000 280.0000 89.1316 -79.8878 128
3.4840 1.7420 95.0000 285.0000 89.5567 -74.9078 129
3.4840 1.7420 95.0000 290.0000 89.9720 -69.9274 130
3.4840 1.7420 95.0000 295.0000 90.3743 -64.9459 131
3.4840 1.7420 95.0000 300.0000 90.7606 -59.9629 132
3.4840 1.7420 95.0000 305.0000 91.1279 -54.9780 133
3.4840 1.7420 95.0000 310.0000 91.4734 -49.9910 134
3.4840 1.7420 95.0000 315.0000 91.7946 -45.0016 135
3.4840 1.7420 95.0000 320.0000 92.0890 -40.0097 136
3.4840 1.7420 95.0000 325.0000 92.3542 -35.0153 137
3.4840 1.7420 95.0000 330.0000 92.5884 -30.0185 138
3.4840 1.7420 95.0000 335.0000 92.7897 -25.0193 139
3.4840 1.7420 95.0000 340.0000 92.9565 -20.0181 140
3.4840 1.7420 95.0000 345.0000 93.0877 -15.0152 141
3.4840 1.7420 95.0000 350.0000 93.1821 -10.0109 142
3.4840 1.7420 95.0000 355.0000 93.2390 -5.0057 143

3.4840 1.7420 100.0000 0.0000 98.2580 0.0000 144
3.4840 1.7420 100.0000 5.0000 98.2198 5.0497 145
3.4840 1.7420 100.0000 10.0000 98.1054 10.0972 146
3.4840 1.7420 100.0000 15.0000 97.9157 15.1406 147
3.4840 1.7420 100.0000 20.0000 97.6524 20.1778 148
3.4840 1.7420 100.0000 25.0000 97.3176 25.2071 149
3.4840 1.7420 100.0000 30.0000 96.9139 30.2272 150
3.4840 1.7420 100.0000 35.0000 96.4445 35.2368 151
3.4840 1.7420 100.0000 40.0000 95.9133 40.2353 152
3.4840 1.7420 100.0000 45.0000 95.3244 45.2221 153
3.4840 1.7420 100.0000 50.0000 94.6823 50.1974 154
3.4840 1.7420 100.0000 55.0000 93.9920 55.1614 155
3.4840 1.7420 100.0000 60.0000 93.2588 60.1150 156
3.4840 1.7420 100.0000 65.0000 92.4883 65.0592 157
3.4840 1.7420 100.0000 70.0000 91.6863 69.9954 158
3.4840 1.7420 100.0000 75.0000 90.8586 74.9254 159
3.4840 1.7420 100.0000 80.0000 90.0116 79.8509 160
3.4840 1.7420 100.0000 85.0000 89.1514 84.7742 161
3.4840 1.7420 100.0000 90.0000 88.2845 89.6974 162
3.4840 1.7420 100.0000 95.0000 87.4171 94.6228 163
3.4840 1.7420 100.0000 100.0000 86.5558 99.5525 164
3.4840 1.7420 100.0000 105.0000 85.7068 104.4889 165
3.4840 1.7420 100.0000 110.0000 84.8766 109.4339 166
3.4840 1.7420 100.0000 115.0000 84.0713 114.3894 167
3.4840 1.7420 100.0000 120.0000 83.2971 119.3569 168
3.4840 1.7420 100.0000 125.0000 82.5598 124.3379 169
3.4840 1.7420 100.0000 130.0000 81.8651 129.3332 170
3.4840 1.7420 100.0000 135.0000 81.2184 134.3434 171
3.4840 1.7420 100.0000 140.0000 80.6249 139.3687 172
3.4840 1.7420 100.0000 145.0000 80.0892 144.4089 173
3.4840 1.7420 100.0000 150.0000 79.6156 149.4632 174
3.4840 1.7420 100.0000 155.0000 79.2081 154.5306 175
3.4840 1.7420 100.0000 160.0000 78.8699 159.6096 176
3.4840 1.7420 100.0000 165.0000 78.6039 164.6983 177
3.4840 1.7420 100.0000 170.0000 78.4123 169.7945 178
3.4840 1.7420 100.0000 175.0000 78.2966 174.8959 179
3.4840 1.7420 100.0000 180.0000 78.2580 -180.0000 180
3.4840 1.7420 100.0000 185.0000 78.2966 -174.8959 181
3.4840 1.7420 100.0000 190.0000 78.4123 -169.7945 182
3.4840 1.7420 100.0000 195.0000 78.6039 -164.6983 183
3.4840 1.7420 100.0000 200.0000 78.8699 -159.6096 184
3.4840 1.7420 100.0000 205.0000 79.2081 -154.5306 185
3.4840 1.7420 100.0000 210.0000 79.6156 -149.4632 186
3.4840 1.7420 100.0000 215.0000 80.0892 -144.4089 187
3.4840 1.7420 100.0000 220.0000 80.6249 -139.3687 188
3.4840 1.7420 100.0000 225.0000 81.2184 -134.3434 189
3.4840 1.7420 100.0000 230.0000 81.8651 -129.3332 190
3.4840 1.7420 100.0000 235.0000 82.5598 -124.3379 191
3.4840 1.7420 100.0000 240.0000 83.2971 -119.3569 192
3.4840 1.7420 100.0000 245.0000 84.0713 -114.3894 193
3.4840 1.7420 100.0000 250.0000 84.8766 -109.4339 194
3.4840 1.7420 100.0000 255.0000 85.7068 -104.4889 195
3.4840 1.7420 100.0000 260.0000 86.5558 -99.5525 196
3.4840 1.7420 100.0000 265.0000 87.4171 -94.6228 197
3.4840 1.7420 100.0000 270.0000 88.2845 -89.6974 198
3.4840 1.7420 100.0000 275.0000 89.1514 -84.7742 199
3.4840 1.7420 100.0000 280.0000 90.0116 -79.8509 200
3.4840 1.7420 100.0000 285.0000 90.8586 -74.9254 201
3.4840 1.7420 100.0000 290.0000 91.6863 -69.9954 202
3.4840 1.7420 100.0000 295.0000 92.4883 -65.0592 203
3.4840 1.7420 100.0000 300.0000 93.2588 -60.1150 204
3.4840 1.7420 100.0000 305.0000 93.9920 -55.1614 205
3.4840 1.7420 100.0000 310.0000 94.6823 -50.1974 206
3.4840 1.7420 100.0000 315.0000 95.3244 -45.2221 207
3.4840 1.7420 100.0000 320.0000 95.9133 -40.2353 208
3.4840 1.7420 100.0000 325.0000 96.4445 -35.2368 209
3.4840 1.7420 100.0000 330.0000 96.9139 -30.2272 210
3.4840 1.7420 100.0000 335.0000 97.3176 -25.2071 211
3.4840 1.7420 100.0000 340.0000 97.6524 -20.1778 212
3.4840 1.7420 100.0000 345.0000 97.9157 -15.1406 213
3.4840 1.7420 100.0000 350.0000 98.1054 -10.0972 214
3.4840 1.7420 100.0000 355.0000 98.2198 -5.0497 215

3.4840 1.7420 105.0000 0.0000 103.2580 0.0000 216
3.4840 1.7420 105.0000 5.0000 103.2001 5.1337 217
3.4840 1.7420 105.0000 10.0000 103.0268 10.2622 218
3.4840 1.7420 105.0000 15.0000 102.7397 15.3805 219
3.4840 1.7420 105.0000 20.0000 102.3413 20.4842 220
3.4840 1.7420 105.0000 25.0000 101.8352 25.5690 221
3.4840 1.7420 105.0000 30.0000 101.2259 30.6317 222
3.4840 1.7420 105.0000 35.0000 100.5184 35.6696 223
3.4840 1.7420 105.0000 40.0000 99.7188 40.6809 224
3.4840 1.7420 105.0000 45.0000 98.8336 45.6648 225
3.4840 1.7420 105.0000 50.0000 97.8700 50.6214 226
3.4840 1.7420 105.0000 55.0000 96.8356 55.5515 227
3.4840 1.7420 105.0000 60.0000 95.7384 60.4569 228
3.4840 1.7420 105.0000 65.0000 94.5867 65.3400 229
3.4840 1.7420 105.0000 70.0000 93.3891 70.2039 230
3.4840 1.7420 105.0000 75.0000 92.1544 75.0525 231
3.4840 1.7420 105.0000 80.0000 90.8915 79.8898 232
3.4840 1.7420 105.0000 85.0000 89.6095 84.7203 233
3.4840 1.7420 105.0000 90.0000 88.3174 89.5490 234
3.4840 1.7420 105.0000 95.0000 87.0244 94.3806 235
3.4840 1.7420 105.0000 100.0000 85.7398 99.2202 236
3.4840 1.7420 105.0000 105.0000 84.4727 104.0724 237
3.4840 1.7420 105.0000 110.0000 83.2323 108.9418 238
3.4840 1.7420 105.0000 115.0000 82.0277 113.8326 239
3.4840 1.7420 105.0000 120.0000 80.8678 118.7487 240
3.4840 1.7420 105.0000 125.0000 79.7614 123.6929 241
3.4840 1.7420 105.0000 130.0000 78.7172 128.6679 242
3.4840 1.7420 105.0000 135.0000 77.7433 133.6752 243
3.4840 1.7420 105.0000 140.0000 76.8478 138.7156 244
3.4840 1.7420 105.0000 145.0000 76.0381 143.7887 245
3.4840 1.7420 105.0000 150.0000 75.3210 148.8934 246
3.4840 1.7420 105.0000 155.0000 74.7029 154.0276 247
3.4840 1.7420 105.0000 160.0000 74.1892 159.1879 248
3.4840 1.7420 105.0000 165.0000 73.7847 164.3704 249
3.4840 1.7420 105.0000 170.0000 73.4930 169.5703 250
3.4840 1.7420 105.0000 175.0000 73.3169 174.7821 251
3.4840 1.7420 105.0000 180.0000 73.2580 -180.0000 252
3.4840 1.7420 105.0000 185.0000 73.3169 -174.7821 253
3.4840 1.7420 105.0000 190.0000 73.4930 -169.5703 254
3.4840 1.7420 105.0000 195.0000 73.7847 -164.3704 255
3.4840 1.7420 105.0000 200.0000 74.1892 -159.1879 256
3.4840 1.7420 105.0000 205.0000 74.7029 -154.0276 257
3.4840 1.7420 105.0000 210.0000 75.3210 -148.8934 258
3.4840 1.7420 105.0000 215.0000 76.0381 -143.7887 259
3.4840 1.7420 105.0000 220.0000 76.8478 -138.7156 260
3.4840 1.7420 105.0000 225.0000 77.7433 -133.6752 261
3.4840 1.7420 105.0000 230.0000 78.7172 -128.6679 262
3.4840 1.7420 105.0000 235.0000 79.7614 -123.6929 263
3.4840 1.7420 105.0000 240.0000 80.8678 -118.7487 264
3.4840 1.7420 105.0000 245.0000 82.0277 -113.8326 265
3.4840 1.7420 105.0000 250.0000 83.2323 -108.9418 266
3.4840 1.7420 105.0000 255.0000 84.4727 -104.0724 267
3.4840 1.7420 105.0000 260.0000 85.7398 -99.2202 268
3.4840 1.7420 105.0000 265.0000 87.0244 -94.3806 269
3.4840 1.7420 105.0000 270.0000 88.3174 -89.5490 270
3.4840 1.7420 105.0000 275.0000 89.6095 -84.7203 271
3.4840 1.7420 105.0000 280.0000 90.8915 -79.8898 272
3.4840 1.7420 105.0000 285.0000 92.1544 -75.0525 273
3.4840 1.7420 105.0000 290.0000 93.3891 -70.2039 274
3.4840 1.7420 105.0000 295.0000 94.5867 -65.3400 275
3.4840 1.7420 105.0000 300.0000 95.7384 -60.4569 276
3.4840 1.7420 105.0000 305.0000 96.8356 -55.5515 277
3.4840 1.7420 105.0000 310.0000 97.8700 -50.6214 278
3.4840 1.7420 105.0000 315.0000 98.8336 -45.6648 279
3.4840 1.7420 105.0000 320.0000 99.7188 -40.6809 280
3.4840 1.7420 105.0000 325.0000 100.5184 -35.6696 281
3.4840 1.7420 105.0000 330.0000 101.2259 -30.6317 282
3.4840 1.7420 105.0000 335.0000 101.8352 -25.5690 283
3.4840 1.7420 105.0000 340.0000 102.3413 -20.4842 284
3.4840 1.7420 105.0000 345.0000 102.7397 -15.3805 285
3.4840 1.7420 105.0000 350.0000 103.0268 -10.2622 286
3.4840 1.7420 105.0000 355.0000 103.2001 -5.1337 287

3.4840 1.7420 110.0000 0.0000 108.2580 0.0000 288
3.4840 1.7420 110.0000 5.0000 108.1795 5.2610 289
3.4840 1.7420 110.0000 10.0000 107.9449 10.5121 290
3.4840 1.7420 110.0000 15.0000 107.5566 15.7439 291
3.4840 1.7420 110.0000 20.0000 107.0184 20.9478 292
3.4840 1.7420 110.0000 25.0000 106.3358 26.1162 293
3.4840 1.7420 110.0000 30.0000 105.5153 31.2431 294
3.4840 1.7420 110.0000 35.0000 104.5646 36.3237 295
3.4840 1.7420 110.0000 40.0000 103.4924 41.3553 296
3.4840 1.7420 110.0000 45.0000 102.3080 46.3365 297
3.4840 1.7420 110.0000 50.0000 101.0216 51.2678 298
3.4840 1.7420 110.0000 55.0000 99.6436 56.1511 299
3.4840 1.7420 110.0000 60.0000 98.1847 60.9898 300
3.4840 1.7420 110.0000 65.0000 96.6562 65.7883 301
3.4840 1.7420 110.0000 70.0000 95.0692 70.5524 302
3.4840 1.7420 110.0000 75.0000 93.4349 75.2886 303
3.4840 1.7420 110.0000 80.0000 91.7649 80.0040 304
3.4840 1.7420 110.0000 85.0000 90.0704 84.7064 305
3.4840 1.7420 110.0000 90.0000 88.3631 89.4040 306
3.4840 1.7420 110.0000 95.0000 86.6543 94.1051 307
3.4840 1.7420 110.0000 100.0000 84.9555 98.8181 308
3.4840 1.7420 110.0000 105.0000 83.2783 103.5510 309
3.4840 1.7420 110.0000 110.0000 81.6344 108.3120 310
3.4840 1.7420 110.0000 115.0000 80.0352 113.1084 311
3.4840 1.7420 110.0000 120.0000 78.4925 117.9469 312
3.4840 1.7420 110.0000 125.0000 77.0177 122.8334 313
3.4840 1.7420 110.0000 130.0000 75.6224 127.7727 314
3.4840 1.7420 110.0000 135.0000 74.3180 132.7683 315
3.4840 1.7420 110.0000 140.0000 73.1153 137.8221 316
3.4840 1.7420 110.0000 145.0000 72.0250 142.9343 317
3.4840 1.7420 110.0000 150.0000 71.0570 148.1036 318
3.4840 1.7420 110.0000 155.0000 70.2207 153.3264 319
3.4840 1.7420 110.0000 160.0000 69.5242 158.5975 320
3.4840 1.7420 110.0000 165.0000 68.9748 163.9097 321
3.4840 1.7420 110.0000 170.0000 68.5780 169.2544 322
3.4840 1.7420 110.0000 175.0000 68.3382 174.6215 323
3.4840 1.7420 110.0000 180.0000 68.2580 -180.0000 324
3.4840 1.7420 110.0000 185.0000 68.3382 -174.6215 325
3.4840 1.7420 110.0000 190.0000 68.5780 -169.2544 326
3.4840 1.7420 110.0000 195.0000 68.9748 -163.9097 327
3.4840 1.7420 110.0000 200.0000 69.5242 -158.5975 328
3.4840 1.7420 110.0000 205.0000 70.2207 -153.3264 329
3.4840 1.7420 110.0000 210.0000 71.0570 -148.1036 330
3.4840 1.7420 110.0000 215.0000 72.0250 -142.9343 331
3.4840 1.7420 110.0000 220.0000 73.1153 -137.8221 332
3.4840 1.7420 110.0000 225.0000 74.3180 -132.7683 333
3.4840 1.7420 110.0000 230.0000 75.6224 -127.7727 334
3.4840 1.7420 110.0000 235.0000 77.0177 -122.8334 335
3.4840 1.7420 110.0000 240.0000 78.4925 -117.9469 336
3.4840 1.7420 110.0000 245.0000 80.0352 -113.1084 337
3.4840 1.7420 110.0000 250.0000 81.6344 -108.3120 338
3.4840 1.7420 110.0000 255.0000 83.2783 -103.5510 339
3.4840 1.7420 110.0000 260.0000 84.9555 -98.8181 340
3.4840 1.7420 110.0000 265.0000 86.6543 -94.1051 341
3.4840 1.7420 110.0000 270.0000 88.3631 -89.4040 342
3.4840 1.7420 110.0000 275.0000 90.0704 -84.7064 343
3.4840 1.7420 110.0000 280.0000 91.7649 -80.0040 344
3.4840 1.7420 110.0000 285.0000 93.4349 -75.2886 345
3.4840 1.7420 110.0000 290.0000 95.0692 -70.5524 346
3.4840 1.7420 110.0000 295.0000 96.6562 -65.7883 347
3.4840 1.7420 110.0000 300.0000 98.1847 -60.9898 348
3.4840 1.7420 110.0000 305.0000 99.6436 -56.1511 349
3.4840 1.7420 110.0000 310.0000 101.0216 -51.2678 350
3.4840 1.7420 110.0000 315.0000 102.3080 -46.3365 351
3.4840 1.7420 110.0000 320.0000 103.4924 -41.3553 352
3.4840 1.7420 110.0000 325.0000 104.5646 -36.3237 353
3.4840 1.7420 110.0000 330.0000 105.5153 -31.2431 354
3.4840 1.7420 110.0000 335.0000 106.3358 -26.1162 355
3.4840 1.7420 110.0000 340.0000 107.0184 -20.9478 356
3.4840 1.7420 110.0000 345.0000 107.5566 -15.7439 357
3.4840 1.7420 110.0000 350.0000 107.9449 -10.5121 358
3.4840 1.7420 110.0000 355.0000 108.1795 -5.2610 359

3.4840 1.7420 115.0000 0.0000 113.2580 0.0000 360
3.4840 1.7420 115.0000 5.0000 113.1578 5.4369 361
3.4840 1.7420 115.0000 10.0000 112.8584 10.8571 362
3.4840 1.7420 115.0000 15.0000 112.3633 16.2446 363
3.4840 1.7420 115.0000 20.0000 111.6784 21.5850 364
3.4840 1.7420 115.0000 25.0000 110.8115 26.8662 365
3.4840 1.7420 115.0000 30.0000 109.7720 32.0783 366
3.4840 1.7420 115.0000 35.0000 108.5709 37.2147 367
3.4840 1.7420 115.0000 40.0000 107.2201 42.2713 368
3.4840 1.7420 115.0000 45.0000 105.7326 47.2471 369
3.4840 1.7420 115.0000 50.0000 104.1214 52.1435 370
3.4840 1.7420 115.0000 55.0000 102.4003 56.9643 371
3.4840 1.7420 115.0000 60.0000 100.5831 61.7154 372
3.4840 1.7420 115.0000 65.0000 98.6833 66.4043 373
3.4840 1.7420 115.0000 70.0000 96.7147 71.0400 374
3.4840 1.7420 115.0000 75.0000 94.6909 75.6325 375
3.4840 1.7420 115.0000 80.0000 92.6252 80.1929 376
3.4840 1.7420 115.0000 85.0000 90.5309 84.7326 377
3.4840 1.7420 115.0000 90.0000 88.4213 89.2636 378
3.4840 1.7420 115.0000 95.0000 86.3095 93.7983 379
3.4840 1.7420 115.0000 100.0000 84.2088 98.3489 380
3.4840 1.7420 115.0000 105.0000 82.1325 102.9276 381
3.4840 1.7420 115.0000 110.0000 80.0942 107.5465 382
3.4840 1.7420 115.0000 115.0000 78.1076 112.2169 383
3.4840 1.7420 115.0000 120.0000 76.1865 116.9495 384
3.4840 1.7420 115.0000 125.0000 74.3451 121.7539 385
3.4840 1.7420 115.0000 130.0000 72.5977 126.6383 386
3.4840 1.7420 115.0000 135.0000 70.9587 131.6093 387
3.4840 1.7420 115.0000 140.0000 69.4426 136.6710 388
3.4840 1.7420 115.0000 145.0000 68.0635 141.8254 389
3.4840 1.7420 115.0000 150.0000 66.8350 147.0712 390
3.4840 1.7420 115.0000 155.0000 65.7703 152.4043 391
3.4840 1.7420 115.0000 160.0000 64.8811 157.8168 392
3.4840 1.7420 115.0000 165.0000 64.1778 163.2979 393
3.4840 1.7420 115.0000 170.0000 63.6690 168.8335 394
3.4840 1.7420 115.0000 175.0000 63.3611 174.4070 395
3.4840 1.7420 115.0000 180.0000 63.2580 -180.0000 396
3.4840 1.7420 115.0000 185.0000 63.3611 -174.4070 397
3.4840 1.7420 115.0000 190.0000 63.6690 -168.8335 398
3.4840 1.7420 115.0000 195.0000 64.1778 -163.2979 399
3.4840 1.7420 115.0000 200.0000 64.8811 -157.8168 400
3.4840 1.7420 115.0000 205.0000 65.7703 -152.4043 401
3.4840 1.7420 115.0000 210.0000 66.8350 -147.0712 402
3.4840 1.7420 115.0000 215.0000 68.0635 -141.8254 403
3.4840 1.7420 115.0000 220.0000 69.4426 -136.6710 404
3.4840 1.7420 115.0000 225.0000 70.9587 -131.6093 405
3.4840 1.7420 115.0000 230.0000 72.5977 -126.6383 406
3.4840 1.7420 115.0000 235.0000 74.3451 -121.7539 407
3.4840 1.7420 115.0000 240.0000 76.1865 -116.9495 408
3.4840 1.7420 115.0000 245.0000 78.1076 -112.2169 409
3.4840 1.7420 115.0000 250.0000 80.0942 -107.5465 410
3.4840 1.7420 115.0000 255.0000 82.1325 -102.9276 411
3.4840 1.7420 115.0000 260.0000 84.2088 -98.3489 412
3.4840 1.7420 115.0000 265.0000 86.3095 -93.7983 413
3.4840 1.7420 115.0000 270.0000 88.4213 -89.2636 414
3.4840 1.7420 115.0000 275.0000 90.5309 -84.7326 415
3.4840 1.7420 115.0000 280.0000 92.6252 -80.1929 416
3.4840 1.7420 115.0000 285.0000 94.6909 -75.6325 417
3.4840 1.7420 115.0000 290.0000 96.7147 -71.0400 418
3.4840 1.7420 115.0000 295.0000 98.6833 -66.4043 419
3.4840 1.7420 115.0000 300.0000 100.5831 -61.7154 420
3.4840 1.7420 115.0000 305.0000 102.4003 -56.9643 421
3.4840 1.7420 115.0000 310.0000 104.1214 -52.1435 422
3.4840 1.7420 115.0000 315.0000 105.7326 -47.2471 423
3.4840 1.7420 115.0000 320.0000 107.2201 -42.2713 424
3.4840 1.7420 115.0000 325.0000 108.5709 -37.2147 425
3.4840 1.7420 115.0000 330.0000 109.7720 -32.0783 426
3.4840 1.7420 115.0000 335.0000 110.8115 -26.8662 427
3.4840 1.7420 115.0000 340.0000 111.6784 -21.5850 428
3.4840 1.7420 115.0000 345.0000 112.3633 -16.2446 429
3.4840 1.7420 115.0000 350.0000 112.8584 -10.8571 430
3.4840 1.7420 115.0000 355.0000 113.1578 -5.4369 431

3.4840 1.7420 120.0000 0.0000 118.2580 0.0000 432
3.4840 1.7420 120.0000 5.0000 118.1344 5.6694 433
3.4840 1.7420 120.0000 10.0000 117.7652 11.3120 434
3.4840 1.7420 120.0000 15.0000 117.1559 16.9028 435
3.4840 1.7420 120.0000 20.0000 116.3148 22.4195 436
3.4840 1.7420 120.0000 25.0000 115.2531 27.8436 437
3.4840 1.7420 120.0000 30.0000 113.9843 33.1613 438
3.4840 1.7420 120.0000 35.0000 112.5234 38.3638 439
3.4840 1.7420 120.0000 40.0000 110.8866 43.4467 440
3.4840 1.7420 120.0000 45.0000 109.0907 48.4100 441
3.4840 1.7420 120.0000 50.0000 107.1527 53.2575 442
3.4840 1.7420 120.0000 55.0000 105.0896 57.9962 443
3.4840 1.7420 120.0000 60.0000 102.9181 62.6358 444
3.4840 1.7420 120.0000 65.0000 100.6544 67.1878 445
3.4840 1.7420 120.0000 70.0000 98.3144 71.6653 446
3.4840 1.7420 120.0000 75.0000 95.9133 76.0828 447
3.4840 1.7420 120.0000 80.0000 93.4661 80.4553 448
3.4840 1.7420 120.0000 85.0000 90.9873 84.7986 449
3.4840 1.7420 120.0000 90.0000 88.4914 89.1288 450
3.4840 1.7420 120.0000 95.0000 85.9927 93.4623 451
3.4840 1.7420 120.0000 100.0000 83.5054 97.8157 452
3.4840 1.7420 120.0000 105.0000 81.0440 102.2055 453
3.4840 1.7420 120.0000 110.0000 78.6234 106.6480 454
3.4840 1.7420 120.0000 115.0000 76.2587 111.1592 455
3.4840 1.7420 120.0000 120.0000 73.9658 115.7546 456
3.4840 1.7420 120.0000 125.0000 71.7610 120.4485 457
3.4840 1.7420 120.0000 130.0000 69.6611 125.2539 458
3.4840 1.7420 120.0000 135.0000 67.6839 130.1818 459
3.4840 1.7420 120.0000 140.0000 65.8472 135.2405 460
3.4840 1.7420 120.0000 145.0000 64.1693 140.4351 461
3.4840 1.7420 120.0000 150.0000 62.6684 145.7662 462
3.4840 1.7420 120.0000 155.0000 61.3622 151.2295 463
3.4840 1.7420 120.0000 160.0000 60.2672 156.8155 464
3.4840 1.7420 120.0000 165.0000 59.3984 162.5088 465
3.4840 1.7420 120.0000 170.0000 58.7681 168.2884 466
3.4840 1.7420 120.0000 175.0000 58.3860 174.1286 467
3.4840 1.7420 120.0000 180.0000 58.2580 -180.0000 468
3.4840 1.7420 120.0000 185.0000 58.3860 -174.1286 469
3.4840 1.7420 120.0000 190.0000 58.7681 -168.2884 470
3.4840 1.7420 120.0000 195.0000 59.3984 -162.5088 471
3.4840 1.7420 120.0000 200.0000 60.2672 -156.8155 472
3.4840 1.7420 120.0000 205.0000 61.3622 -151.2295 473
3.4840 1.7420 120.0000 210.0000 62.6684 -145.7662 474
3.4840 1.7420 120.0000 215.0000 64.1693 -140.4351 475
3.4840 1.7420 120.0000 220.0000 65.8472 -135.2405 476
3.4840 1.7420 120.0000 225.0000 67.6839 -130.1818 477
3.4840 1.7420 120.0000 230.0000 69.6611 -125.2539 478
3.4840 1.7420 120.0000 235.0000 71.7610 -120.4485 479
3.4840 1.7420 120.0000 240.0000 73.9658 -115.7546 480
3.4840 1.7420 120.0000 245.0000 76.2587 -111.1592 481
3.4840 1.7420 120.0000 250.0000 78.6234 -106.6480 482
3.4840 1.7420 120.0000 255.0000 81.0440 -102.2055 483
3.4840 1.7420 120.0000 260.0000 83.5054 -97.8157 484
3.4840 1.7420 120.0000 265.0000 85.9927 -93.4623 485
3.4840 1.7420 120.0000 270.0000 88.4914 -89.1288 486
3.4840 1.7420 120.0000 275.0000 90.9873 -84.7986 487
3.4840 1.7420 120.0000 280.0000 93.4661 -80.4553 488
3.4840 1.7420 120.0000 285.0000 95.9133 -76.0828 489
3.4840 1.7420 120.0000 290.0000 98.3144 -71.6653 490
3.4840 1.7420 120.0000 295.0000 100.6544 -67.1878 491
3.4840 1.7420 120.0000 300.0000 102.9181 -62.6358 492
3.4840 1.7420 120.0000 305.0000 105.0896 -57.9962 493
3.4840 1.7420 120.0000 310.0000 107.1527 -53.2575 494
3.4840 1.7420 120.0000 315.0000 109.0907 -48.4100 495
3.4840 1.7420 120.0000 320.0000 110.8866 -43.4467 496
3.4840 1.7420 120.0000 325.0000 112.5234 -38.3638 497
3.4840 1.7420 120.0000 330.0000 113.9843 -33.1613 498
3.4840 1.7420 120.0000 335.0000 115.2531 -27.8436 499
3.4840 1.7420 120.0000 340.0000 116.3148 -22.4195 500
3.4840 1.7420 120.0000 345.0000 117.1559 -16.9028 501
3.4840 1.7420 120.0000 350.0000 117.7652 -11.3120 502
3.4840 1.7420 120.0000 355.0000 118.1344 -5.6694 503

3.4840 1.7420 125.0000 0.0000 123.2580 0.0000 504
3.4840 1.7420 125.0000 5.0000 123.1086 5.9696 505
3.4840 1.7420 125.0000 10.0000 122.6632 11.8982 506
3.4840 1.7420 125.0000 15.0000 121.9295 17.7472 507
3.4840 1.7420 125.0000 20.0000 120.9196 23.4840 508
3.4840 1.7420 125.0000 25.0000 119.6497 29.0823 509
3.4840 1.7420 125.0000 30.0000 118.1383 34.5241 510
3.4840 1.7420 125.0000 35.0000 116.4059 39.7989 511
3.4840 1.7420 125.0000 40.0000 114.4740 44.9037 512
3.4840 1.7420 125.0000 45.0000 112.3641 49.8416 513
3.4840 1.7420 125.0000 50.0000 110.0973 54.6206 514
3.4840 1.7420 125.0000 55.0000 107.6942 59.2528 515
3.4840 1.7420 125.0000 60.0000 105.1742 63.7530 516
3.4840 1.7420 125.0000 65.0000 102.5558 68.1381 517
3.4840 1.7420 125.0000 70.0000 99.8566 72.4264 518
3.4840 1.7420 125.0000 75.0000 97.0931 76.6370 519
3.4840 1.7420 125.0000 80.0000 94.2813 80.7895 520
3.4840 1.7420 125.0000 85.0000 91.4363 84.9040 521
3.4840 1.7420 125.0000 90.0000 88.5731 89.0006 522
3.4840 1.7420 125.0000 95.0000 85.7063 93.0999 523
3.4840 1.7420 125.0000 100.0000 82.8507 97.2223 524
3.4840 1.7420 125.0000 105.0000 80.0211 101.3888 525
3.4840 1.7420 125.0000 110.0000 77.2331 105.6201 526
3.4840 1.7420 125.0000 115.0000 74.5027 109.9372 527
3.4840 1.7420 125.0000 120.0000 71.8469 114.3608 528
3.4840 1.7420 125.0000 125.0000 69.2838 118.9110 529
3.4840 1.7420 125.0000 130.0000 66.8326 123.6072 530
3.4840 1.7420 125.0000 135.0000 64.5138 128.4665 531
3.4840 1.7420 125.0000 140.0000 62.3491 133.5038 532
3.4840 1.7420 125.0000 145.0000 60.3612 138.7295 533
3.4840 1.7420 125.0000 150.0000 58.5736 144.1488 534
3.4840 1.7420 125.0000 155.0000 57.0096 149.7598 535
3.4840 1.7420 125.0000 160.0000 55.6922 155.5521 536
3.4840 1.7420 125.0000 165.0000 54.6424 161.5060 537
3.4840 1.7420 125.0000 170.0000 53.8783 167.5919 538
3.4840 1.7420 125.0000 175.0000 53.4138 173.7716 539
3.4840 1.7420 125.0000 180.0000 53.2580 -180.0000 540
3.4840 1.7420 125.0000 185.0000 53.4138 -173.7716 541
3.4840 1.7420 125.0000 190.0000 53.8783 -167.5919 542
3.4840 1.7420 125.0000 195.0000 54.6424 -161.5060 543
3.4840 1.7420 125.0000 200.0000 55.6922 -155.5521 544
3.4840 1.7420 125.0000 205.0000 57.0096 -149.7598 545
3.4840 1.7420 125.0000 210.0000 58.5736 -144.1488 546
3.4840 1.7420 125.0000 215.0000 60.3612 -138.7295 547
3.4840 1.7420 125.0000 220.0000 62.3491 -133.5038 548
3.4840 1.7420 125.0000 225.0000 64.5138 -128.4665 549
3.4840 1.7420 125.0000 230.0000 66.8326 -123.6072 550
3.4840 1.7420 125.0000 235.0000 69.2838 -118.9110 551
3.4840 1.7420 125.0000 240.0000 71.8469 -114.3608 552
3.4840 1.7420 125.0000 245.0000 74.5027 -109.9372 553
3.4840 1.7420 125.0000 250.0000 77.2331 -105.6201 554
3.4840 1.7420 125.0000 255.0000 80.0211 -101.3888 555
3.4840 1.7420 125.0000 260.0000 82.8507 -97.2223 556
3.4840 1.7420 125.0000 265.0000 85.7063 -93.0999 557
3.4840 1.7420 125.0000 270.0000 88.5731 -89.0006 558
3.4840 1.7420 125.0000 275.0000 91.4363 -84.9040 559
3.4840 1.7420 125.0000 280.0000 94.2813 -80.7895 560
3.4840 1.7420 125.0000 285.0000 97.0931 -76.6370 561
3.4840 1.7420 125.0000 290.0000 99.8566 -72.4264 562
3.4840 1.7420 125.0000 295.0000 102.5558 -68.1381 563
3.4840 1.7420 125.0000 300.0000 105.1742 -63.7530 564
3.4840 1.7420 125.0000 305.0000 107.6942 -59.2528 565
3.4840 1.7420 125.0000 310.0000 110.0973 -54.6206 566
3.4840 1.7420 125.0000 315.0000 112.3641 -49.8416 567
3.4840 1.7420 125.0000 320.0000 114.4740 -44.9037 568
3.4840 1.7420 125.0000 325.0000 116.4059 -39.7989 569
3.4840 1.7420 125.0000 330.0000 118.1383 -34.5241 570
3.4840 1.7420 125.0000 335.0000 119.6497 -29.0823 571
3.4840 1.7420 125.0000 340.0000 120.9196 -23.4840 572
3.4840 1.7420 125.0000 345.0000 121.9295 -17.7472 573
3.4840 1.7420 125.0000 350.0000 122.6632 -11.8982 574
3.4840 1.7420 125.0000 355.0000 123.1086 -5.9696 575

3.4840 1.7420 130.0000 0.0000 128.2580 0.0000 576
3.4840 1.7420 130.0000 5.0000 128.0798 6.3540 577
3.4840 1.7420 130.0000 10.0000 127.5492 12.6457 578
3.4840 1.7420 130.0000 15.0000 126.6776 18.8181 579
3.4840 1.7420 130.0000 20.0000 125.4827 24.8237 580
3.4840 1.7420 130.0000 25.0000 123.9872 30.6277 581
3.4840 1.7420 130.0000 30.0000 122.2169 36.2080 582
3.4840 1.7420 130.0000 35.0000 120.1994 41.5551 583
3.4840 1.7420 130.0000 40.0000 117.9622 46.6698 584
3.4840 1.7420 130.0000 45.0000 115.5325 51.5613 585
3.4840 1.7420 130.0000 50.0000 112.9357 56.2449 586
3.4840 1.7420 130.0000 55.0000 110.1959 60.7400 587
3.4840 1.7420 130.0000 60.0000 107.3350 65.0687 588
3.4840 1.7420 130.0000 65.0000 104.3735 69.2542 589
3.4840 1.7420 130.0000 70.0000 101.3299 73.3207 590
3.4840 1.7420 130.0000 75.0000 98.2216 77.2924 591
3.4840 1.7420 130.0000 80.0000 95.0647 81.1935 592
3.4840 1.7420 130.0000 85.0000 91.8745 85.0480 593
3.4840 1.7420 130.0000 90.0000 88.6656 88.8801 594
3.4840 1.7420 130.0000 95.0000 85.4526 92.7136 595
3.4840 1.7420 130.0000 100.0000 82.2498 96.5728 596
3.4840 1.7420 130.0000 105.0000 79.0720 100.4825 597
3.4840 1.7420 130.0000 110.0000 75.9345 104.4676 598
3.4840 1.7420 130.0000 115.0000 72.8535 108.5539 599
3.4840 1.7420 130.0000 120.0000 69.8468 112.7679 600
3.4840 1.7420 130.0000 125.0000 66.9332 117.1363 601
3.4840 1.7420 130.0000 130.0000 64.1337 121.6857 602
3.4840 1.7420 130.0000 135.0000 61.4715 126.4421 603
3.4840 1.7420 130.0000 140.0000 58.9716 131.4292 604
3.4840 1.7420 130.0000 145.0000 56.6615 136.6668 605
3.4840 1.7420 130.0000 150.0000 54.5705 142.1685 606
3.4840 1.7420 130.0000 155.0000 52.7293 147.9387 607
3.4840 1.7420 130.0000 160.0000 51.1686 153.9694 608
3.4840 1.7420 130.0000 165.0000 49.9179 160.2379 609
3.4840 1.7420 130.0000 170.0000 49.0032 166.7048 610
3.4840 1.7420 130.0000 175.0000 48.4455 173.3148 611
3.4840 1.7420 130.0000 180.0000 48.2580 -180.0000 612
3.4840 1.7420 130.0000 185.0000 48.4455 -173.3148 613
3.4840 1.7420 130.0000 190.0000 49.0032 -166.7048 614
3.4840 1.7420 130.0000 195.0000 49.9179 -160.2379 615
3.4840 1.7420 130.0000 200.0000 51.1686 -153.9694 616
3.4840 1.7420 130.0000 205.0000 52.7293 -147.9387 617
3.4840 1.7420 130.0000 210.0000 54.5705 -142.1685 618
3.4840 1.7420 130.0000 215.0000 56.6615 -136.6668 619
3.4840 1.7420 130.0000 220.0000 58.9716 -131.4292 620
3.4840 1.7420 130.0000 225.0000 61.4715 -126.4421 621
3.4840 1.7420 130.0000 230.0000 64.1337 -121.6857 622
3.4840 1.7420 130.0000 235.0000 66.9332 -117.1363 623
3.4840 1.7420 130.0000 240.0000 69.8468 -112.7679 624
3.4840 1.7420 130.0000 245.0000 72.8535 -108.5539 625
3.4840 1.7420 130.0000 250.0000 75.9345 -104.4676 626
3.4840 1.7420 130.0000 255.0000 79.0720 -100.4825 627
3.4840 1.7420 130.0000 260.0000 82.2498 -96.5728 628
3.4840 1.7420 130.0000 265.0000 85.4526 -92.7136 629
3.4840 1.7420 130.0000 270.0000 88.6656 -88.8801 630
3.4840 1.7420 130.0000 275.0000 91.8745 -85.0480 631
3.4840 1.7420 130.0000 280.0000 95.0647 -81.1935 632
3.4840 1.7420 130.0000 285.0000 98.2216 -77.2924 633
3.4840 1.7420 130.0000 290.0000 101.3299 -73.3207 634
3.4840 1.7420 130.0000 295.0000 104.3735 -69.2542 635
3.4840 1.7420 130.0000 300.0000 107.3350 -65.0687 636
3.4840 1.7420 130.0000 305.0000 110.1959 -60.7400 637
3.4840 1.7420 130.0000 310.0000 112.9357 -56.2449 638
3.4840 1.7420 130.0000 315.0000 115.5325 -51.5613 639
3.4840 1.7420 130.0000 320.0000 117.9622 -46.6698 640
3.4840 1.7420 130.0000 325.0000 120.1994 -41.5551 641
3.4840 1.7420 130.0000 330.0000 122.2169 -36.2080 642
3.4840 1.7420 130.0000 335.0000 123.9872 -30.6277 643
3.4840 1.7420 130.0000 340.0000 125.4827 -24.8237 644
3.4840 1.7420 130.0000 345.0000 126.6776 -18.8181 645
3.4840 1.7420 130.0000 350.0000 127.5492 -12.6457 646
3.4840 1.7420 130.0000 355.0000 128.0798 -6.3540 647

3.4840 1.7420 135.0000 0.0000 133.2580 0.0000 648
3.4840 1.7420 135.0000 5.0000 133.0468 6.8463 649
3.4840 1.7420 135.0000 10.0000 132.4190 13.5983 650
3.4840 1.7420 135.0000 15.0000 131.3916 20.1718 651
3.4840 1.7420 135.0000 20.0000 129.9905 26.5006 652
3.4840 1.7420 135.0000 25.0000 128.2479 32.5398 653
3.4840 1.7420 135.0000 30.0000 126.1992 38.2662 654
3.4840 1.7420 135.0000 35.0000 123.8807 43.6752 655
3.4840 1.7420 135.0000 40.0000 121.3275 48.7767 656
3.4840 1.7420 135.0000 45.0000 118.5727 53.5905 657
3.4840 1.7420 135.0000 50.0000 115.6463 58.1429 658
3.4840 1.7420 135.0000 55.0000 112.5753 62.4636 659
3.4840 1.7420 135.0000 60.0000 109.3838 66.5835 660
3.4840 1.7420 135.0000 65.0000 106.0933 70.5337 661
3.4840 1.7420 135.0000 70.0000 102.7230 74.3444 662
3.4840 1.7420 135.0000 75.0000 99.2901 78.0452 663
3.4840 1.7420 135.0000 80.0000 95.8103 81.6644 664
3.4840 1.7420 135.0000 85.0000 92.2984 85.2297 665
3.4840 1.7420 135.0000 90.0000 88.7683 88.7680 666
3.4840 1.7420 135.0000 95.0000 85.2335 92.3064 667
3.4840 1.7420 135.0000 100.0000 81.7075 95.8719 668
3.4840 1.7420 135.0000 105.0000 78.2043 99.4923 669
3.4840 1.7420 135.0000 110.0000 74.7383 103.1963 670
3.4840 1.7420 135.0000 115.0000 71.3254 107.0142 671
3.4840 1.7420 135.0000 120.0000 67.9828 110.9776 672
3.4840 1.7420 135.0000 125.0000 64.7298 115.1204 673
3.4840 1.7420 135.0000 130.0000 61.5882 119.4777 674
3.4840 1.7420 135.0000 135.0000 58.5829 124.0860 675
3.4840 1.7420 135.0000 140.0000 55.7420 128.9812 676
3.4840 1.7420 135.0000 145.0000 53.0975 134.1971 677
3.4840 1.7420 135.0000 150.0000 50.6849 139.7616 678
3.4840 1.7420 135.0000 155.0000 48.5432 145.6921 679
3.4840 1.7420 135.0000 160.0000 46.7132 151.9893 680
3.4840 1.7420 135.0000 165.0000 45.2357 158.6318 681
3.4840 1.7420 135.0000 170.0000 44.1484 165.5702 682
3.4840 1.7420 135.0000 175.0000 43.4824 172.7270 683
3.4840 1.7420 135.0000 180.0000 43.2580 -180.0000 684
3.4840 1.7420 135.0000 185.0000 43.4824 -172.7270 685
3.4840 1.7420 135.0000 190.0000 44.1484 -165.5702 686
3.4840 1.7420 135.0000 195.0000 45.2357 -158.6318 687
3.4840 1.7420 135.0000 200.0000 46.7132 -151.9893 688
3.4840 1.7420 135.0000 205.0000 48.5432 -145.6921 689
3.4840 1.7420 135.0000 210.0000 50.6849 -139.7616 690
3.4840 1.7420 135.0000 215.0000 53.0975 -134.1971 691
3.4840 1.7420 135.0000 220.0000 55.7420 -128.9812 692
3.4840 1.7420 135.0000 225.0000 58.5829 -124.0860 693
3.4840 1.7420 135.0000 230.0000 61.5882 -119.4777 694
3.4840 1.7420 135.0000 235.0000 64.7298 -115.1204 695
3.4840 1.7420 135.0000 240.0000 67.9828 -110.9776 696
3.4840 1.7420 135.0000 245.0000 71.3254 -107.0142 697
3.4840 1.7420 135.0000 250.0000 74.7383 -103.1963 698
3.4840 1.7420 135.0000 255.0000 78.2043 -99.4923 699
3.4840 1.7420 135.0000 260.0000 81.7075 -95.8719 700
3.4840 1.7420 135.0000 265.0000 85.2335 -92.3064 701
3.4840 1.7420 135.0000 270.0000 88.7683 -88.7680 702
3.4840 1.7420 135.0000 275.0000 92.2984 -85.2297 703
3.4840 1.7420 135.0000 280.0000 95.8103 -81.6644 704
3.4840 1.7420 135.0000 285.0000 99.2901 -78.0452 705
3.4840 1.7420 135.0000 290.0000 102.7230 -74.3444 706
3.4840 1.7420 135.0000 295.0000 106.0933 -70.5337 707
3.4840 1.7420 135.0000 300.0000 109.3838 -66.5835 708
3.4840 1.7420 135.0000 305.0000 112.5753 -62.4636 709
3.4840 1.7420 135.0000 310.0000 115.6463 -58.1429 710
3.4840 1.7420 135.0000 315.0000 118.5727 -53.5905 711
3.4840 1.7420 135.0000 320.0000 121.3275 -48.7767 712
3.4840 1.7420 135.0000 325.0000 123.8807 -43.6752 713
3.4840 1.7420 135.0000 330.0000 126.1992 -38.2662 714
3.4840 1.7420 135.0000 335.0000 128.2479 -32.5398 715
3.4840 1.7420 135.0000 340.0000 129.9905 -26.5006 716
3.4840 1.7420 135.0000 345.0000 131.3916 -20.1718 717
3.4840 1.7420 135.0000 350.0000 132.4190 -13.5983 718
3.4840 1.7420 135.0000 355.0000 133.0468 -6.8463 719

3.4840 1.7420 140.0000 0.0000 138.2580 0.0000 720
3.4840 1.7420 140.0000 5.0000 138.0079 7.4818 721
3.4840 1.7420 140.0000 10.0000 137.2665 14.8197 722
3.4840 1.7420 140.0000 15.0000 136.0594 21.8892 723
3.4840 1.7420 140.0000 20.0000 134.4249 28.5996 724
3.4840 1.7420 140.0000 25.0000 132.4084 34.8977 725
3.4840 1.7420 140.0000 30.0000 130.0583 40.7652 726
3.4840 1.7420 140.0000 35.0000 127.4217 46.2105 727
3.4840 1.7420 140.0000 40.0000 124.5422 51.2603 728
3.4840 1.7420 140.0000 45.0000 121.4588 55.9517 729
3.4840 1.7420 140.0000 50.0000 118.2056 60.3266 730
3.4840 1.7420 140.0000 55.0000 114.8120 64.4277 731
3.4840 1.7420 140.0000 60.0000 111.3033 68.2967 732
3.4840 1.7420 140.0000 65.0000 107.7013 71.9729 733
3.4840 1.7420 140.0000 70.0000 104.0248 75.4930 734
3.4840 1.7420 140.0000 75.0000 100.2903 78.8911 735
3.4840 1.7420 140.0000 80.0000 96.5125 82.1992 736
3.4840 1.7420 140.0000 85.0000 92.7050 85.4475 737
3.4840 1.7420 140.0000 90.0000 88.8804 88.6654 738
3.4840 1.7420 140.0000 95.0000 85.0507 91.8815 739
3.4840 1.7420 140.0000 100.0000 81.2281 95.1248 740
3.4840 1.7420 140.0000 105.0000 77.4251 98.4251 741
3.4840 1.7420 140.0000 110.0000 73.6549 101.8138 742
3.4840 1.7420 140.0000 115.0000 69.9320 105.3246 743
3.4840 1.7420 140.0000 120.0000 66.2726 108.9941 744
3.4840 1.7420 140.0000 125.0000 62.6953 112.8624 745
3.4840 1.7420 140.0000 130.0000 59.2218 116.9738 746
3.4840 1.7420 140.0000 135.0000 55.8774 121.3765 747
3.4840 1.7420 140.0000 140.0000 52.6925 126.1220 748
3.4840 1.7420 140.0000 145.0000 49.7025 131.2630 749
3.4840 1.7420 140.0000 150.0000 46.9491 136.8497 750
3.4840 1.7420 140.0000 155.0000 44.4803 142.9229 751
3.4840 1.7420 140.0000 160.0000 42.3491 149.5039 752
3.4840 1.7420 140.0000 165.0000 40.6115 156.5822 753
3.4840 1.7420 140.0000 170.0000 39.3219 164.1032 754
3.4840 1.7420 140.0000 175.0000 38.5268 171.9603 755
3.4840 1.7420 140.0000 180.0000 38.2580 -180.0000 756
3.4840 1.7420 140.0000 185.0000 38.5268 -171.9603 757
3.4840 1.7420 140.0000 190.0000 39.3219 -164.1032 758
3.4840 1.7420 140.0000 195.0000 40.6115 -156.5822 759
3.4840 1.7420 140.0000 200.0000 42.3491 -149.5039 760
3.4840 1.7420 140.0000 205.0000 44.4803 -142.9229 761
3.4840 1.7420 140.0000 210.0000 46.9491 -136.8497 762
3.4840 1.7420 140.0000 215.0000 49.7025 -131.2630 763
3.4840 1.7420 140.0000 220.0000 52.6925 -126.1220 764
3.4840 1.7420 140.0000 225.0000 55.8774 -121.3765 765
3.4840 1.7420 140.0000 230.0000 59.2218 -116.9738 766
3.4840 1.7420 140.0000 235.0000 62.6953 -112.8624 767
3.4840 1.7420 140.0000 240.0000 66.2726 -108.9941 768
3.4840 1.7420 140.0000 245.0000 69.9320 -105.3246 769
3.4840 1.7420 140.0000 250.0000 73.6549 -101.8138 770
3.4840 1.7420 140.0000 255.0000 77.4251 -98.4251 771
3.4840 1.7420 140.0000 260.0000 81.2281 -95.1248 772
3.4840 1.7420 140.0000 265.0000 85.0507 -91.8815 773
3.4840 1.7420 140.0000 270.0000 88.8804 -88.6654 774
3.4840 1.7420 140.0000 275.0000 92.7050 -85.4475 775
3.4840 1.7420 140.0000 280.0000 96.5125 -82.1992 776
3.4840 1.7420 140.0000 285.0000 100.2903 -78.8911 777
3.4840 1.7420 140.0000 290.0000 104.0248 -75.4930 778
3.4840 1.7420 140.0000 295.0000 107.7013 -71.9729 779
3.4840 1.7420 140.0000 300.0000 111.3033 -68.2967 780
3.4840 1.7420 140.0000 305.0000 114.8120 -64.4277 781
3.4840 1.7420 140.0000 310.0000 118.2056 -60.3266 782
3.4840 1.7420 140.0000 315.0000 121.4588 -55.9517 783
3.4840 1.7420 140.0000 320.0000 124.5422 -51.2603 784
3.4840 1.7420 140.0000 325.0000 127.4217 -46.2105 785
3.4840 1.7420 140.0000 330.0000 130.0583 -40.7652 786
3.4840 1.7420 140.0000 335.0000 132.4084 -34.8977 787
3.4840 1.7420 140.0000 340.0000 134.4249 -28.5996 788
3.4840 1.7420 140.0000 345.0000 136.0594 -21.8892 789
3.4840 1.7420 140.0000 350.0000 137.2665 -14.8197 790
3.4840 1.7420 140.0000 355.0000 138.0079 -7.4818 791

3.4840 1.7420 145.0000 0.0000 143.2580 0.0000 792
3.4840 1.7420 145.0000 5.0000 142.9606 8.3154 793
3.4840 1.7420 145.0000 10.0000 142.0827 16.4061 794
3.4840 1.7420 145.0000 15.0000 140.6637 24.0872 795
3.4840 1.7420 145.0000 20.0000 138.7604 31.2380 796
3.4840 1.7420 145.0000 25.0000 136.4376 37.8044 797
3.4840 1.7420 145.0000 30.0000 133.7603 43.7863 798
3.4840 1.7420 145.0000 35.0000 130.7881 49.2194 799
3.4840 1.7420 145.0000 40.0000 127.5737 54.1587 800
3.4840 1.7420 145.0000 45.0000 124.1613 58.6666 801
3.4840 1.7420 145.0000 50.0000 120.5880 62.8055 802
3.4840 1.7420 145.0000 55.0000 116.8845 66.6339 803
3.4840 1.7420 145.0000 60.0000 113.0759 70.2051 804
3.4840 1.7420 145.0000 65.0000 109.1834 73.5665 805
3.4840 1.7420 145.0000 70.0000 105.2244 76.7604 806
3.4840 1.7420 145.0000 75.0000 101.2142 79.8248 807
3.4840 1.7420 145.0000 80.0000 97.1659 82.7941 808
3.4840 1.7420 145.0000 85.0000 93.0912 85.7001 809
3.4840 1.7420 145.0000 90.0000 89.0009 88.5729 810
3.4840 1.7420 145.0000 95.0000 84.9056 91.4420 811
3.4840 1.7420 145.0000 100.0000 80.8155 94.3370 812
3.4840 1.7420 145.0000 105.0000 76.7412 97.2884 813
3.4840 1.7420 145.0000 110.0000 72.6941 100.3290 814
3.4840 1.7420 145.0000 115.0000 68.6869 103.4944 815
3.4840 1.7420 145.0000 120.0000 64.7339 106.8247 816
3.4840 1.7420 145.0000 125.0000 60.8521 110.3654 817
3.4840 1.7420 145.0000 130.0000 57.0618 114.1689 818
3.4840 1.7420 145.0000 135.0000 53.3878 118.2955 819
3.4840 1.7420 145.0000 140.0000 49.8603 122.8141 820
3.4840 1.7420 145.0000 145.0000 46.5173 127.8014 821
3.4840 1.7420 145.0000 150.0000 43.4050 133.3390 822
3.4840 1.7420 145.0000 155.0000 40.5801 139.5058 823
3.4840 1.7420 145.0000 160.0000 38.1096 146.3636 824
3.4840 1.7420 145.0000 165.0000 36.0688 153.9344 825
3.4840 1.7420 145.0000 170.0000 34.5360 162.1722 826
3.4840 1.7420 145.0000 175.0000 33.5821 170.9385 827
3.4840 1.7420 145.0000 180.0000 33.2580 -180.0000 828
3.4840 1.7420 145.0000 185.0000 33.5821 -170.9385 829
3.4840 1.7420 145.0000 190.0000 34.5360 -162.1722 830
3.4840 1.7420 145.0000 195.0000 36.0688 -153.9344 831
3.4840 1.7420 145.0000 200.0000 38.1096 -146.3636 832
3.4840 1.7420 145.0000 205.0000 40.5801 -139.5058 833
3.4840 1.7420 145.0000 210.0000 43.4050 -133.3390 834
3.4840 1.7420 145.0000 215.0000 46.5173 -127.8014 835
3.4840 1.7420 145.0000 220.0000 49.8603 -122.8141 836
3.4840 1.7420 145.0000 225.0000 53.3878 -118.2955 837
3.4840 1.7420 145.0000 230.0000 57.0618 -114.1689 838
3.4840 1.7420 145.0000 235.0000 60.8521 -110.3654 839
3.4840 1.7420 145.0000 240.0000 64.7339 -106.8247 840
3.4840 1.7420 145.0000 245.0000 68.6869 -103.4944 841
3.4840 1.7420 145.0000 250.0000 72.6941 -100.3290 842
3.4840 1.7420 145.0000 255.0000 76.7412 -97.2884 843
3.4840 1.7420 145.0000 260.0000 80.8155 -94.3370 844
3.4840 1.7420 145.0000 265.0000 84.9056 -91.4420 845
3.4840 1.7420 145.0000 270.0000 89.0009 -88.5729 846
3.4840 1.7420 145.0000 275.0000 93.0912 -85.7001 847
3.4840 1.7420 145.0000 280.0000 97.1659 -82.7941 848
3.4840 1.7420 145.0000 285.0000 101.2142 -79.8248 849
3.4840 1.7420 145.0000 290.0000 105.2244 -76.7604 850
3.4840 1.7420 145.0000 295.0000 109.1834 -73.5665 851
3.4840 1.7420 145.0000 300.0000 113.0759 -70.2051 852
3.4840 1.7420 145.0000 305.0000 116.8845 -66.6339 853
3.4840 1.7420 145.0000 310.0000 120.5880 -62.8055 854
3.4840 1.7420 145.0000 315.0000 124.1613 -58.6666 855
3.4840 1.7420 145.0000 320.0000 127.5737 -54.1587 856
3.4840 1.7420 145.0000 325.0000 130.7881 -49.2194 857
3.4840 1.7420 145.0000 330.0000 133.7603 -43.7863 858
3.4840 1.7420 145.0000 335.0000 136.4376 -37.8044 859
3.4840 1.7420 145.0000 340.0000 138.7604 -31.2380 860
3.4840 1.7420 145.0000 345.0000 140.6637 -24.0872 861
3.4840 1.7420 145.0000 350.0000 142.0827 -16.4061 862
3.4840 1.7420 145.0000 355.0000 142.9606 -8.3154 863

3.4840 1.7420 150.0000 0.0000 148.2580 0.0000 864
3.4840 1.7420 150.0000 5.0000 147.9011 9.4357 865
3.4840 1.7420 150.0000 10.0000 146.8535 18.5079 866
3.4840 1.7420 150.0000 15.0000 145.1780 26.9390 867
3.4840 1.7420 150.0000 20.0000 142.9607 34.5785 868
3.4840 1.7420 150.0000 25.0000 140.2932 41.3925 869
3.4840 1.7420 150.0000 30.0000 137.2611 47.4262 870
3.4840 1.7420 150.0000 35.0000 133.9380 52.7654 871
3.4840 1.7420 150.0000 40.0000 130.3840 57.5089 872
3.4840 1.7420 150.0000 45.0000 126.6475 61.7532 873
3.4840 1.7420 150.0000 50.0000 122.7663 65.5852 874
3.4840 1.7420 150.0000 55.0000 118.7705 69.0803 875
3.4840 1.7420 150.0000 60.0000 114.6840 72.3027 876
3.4840 1.7420 150.0000 65.0000 110.5258 75.3070 877
3.4840 1.7420 150.0000 70.0000 106.3116 78.1395 878
3.4840 1.7420 150.0000 75.0000 102.0544 80.8403 879
3.4840 1.7420 150.0000 80.0000 97.7653 83.4450 880
3.4840 1.7420 150.0000 85.0000 93.4539 85.9854 881
3.4840 1.7420 150.0000 90.0000 89.1291 88.4913 882
3.4840 1.7420 150.0000 95.0000 84.7994 90.9914 883
3.4840 1.7420 150.0000 100.0000 80.4729 93.5146 884
3.4840 1.7420 150.0000 105.0000 76.1583 96.0908 885
3.4840 1.7420 150.0000 110.0000 71.8648 98.7523 886
3.4840 1.7420 150.0000 115.0000 67.6026 101.5352 887
3.4840 1.7420 150.0000 120.0000 63.3838 104.4809 888
3.4840 1.7420 150.0000 125.0000 59.2228 107.6381 889
3.4840 1.7420 150.0000 130.0000 55.1372 111.0651 890
3.4840 1.7420 150.0000 135.0000 51.1496 114.8324 891
3.4840 1.7420 150.0000 140.0000 47.2885 119.0260 892
3.4840 1.7420 150.0000 145.0000 43.5912 123.7490 893
3.4840 1.7420 150.0000 150.0000 40.1061 129.1231 894
3.4840 1.7420 150.0000 155.0000 36.8964 135.2831 895
3.4840 1.7420 150.0000 160.0000 34.0427 142.3617 896
3.4840 1.7420 150.0000 165.0000 31.6435 150.4550 897
3.4840 1.7420 150.0000 170.0000 29.8106 159.5654 898
3.4840 1.7420 150.0000 175.0000 28.6541 169.5328 899
3.4840 1.7420 150.0000 180.0000 28.2580 -180.0000 900
3.4840 1.7420 150.0000 185.0000 28.6541 -169.5328 901
3.4840 1.7420 150.0000 190.0000 29.8106 -159.5654 902
3.4840 1.7420 150.0000 195.0000 31.6435 -150.4550 903
3.4840 1.7420 150.0000 200.0000 34.0427 -142.3617 904
3.4840 1.7420 150.0000 205.0000 36.8964 -135.2831 905
3.4840 1.7420 150.0000 210.0000 40.1061 -129.1231 906
3.4840 1.7420 150.0000 215.0000 43.5912 -123.7490 907
3.4840 1.7420 150.0000 220.0000 47.2885 -119.0260 908
3.4840 1.7420 150.0000 225.0000 51.1496 -114.8324 909
3.4840 1.7420 150.0000 230.0000 55.1372 -111.0651 910
3.4840 1.7420 150.0000 235.0000 59.2228 -107.6381 911
3.4840 1.7420 150.0000 240.0000 63.3838 -104.4809 912
3.4840 1.7420 150.0000 245.0000 67.6026 -101.5352 913
3.4840 1.7420 150.0000 250.0000 71.8648 -98.7523 914
3.4840 1.7420 150.0000 255.0000 76.1583 -96.0908 915
3.4840 1.7420 150.0000 260.0000 80.4729 -93.5146 916
3.4840 1.7420 150.0000 265.0000 84.7994 -90.9914 917
3.4840 1.7420 150.0000 270.0000 89.1291 -88.4913 918
3.4840 1.7420 150.0000 275.0000 93.4539 -85.9854 919
3.4840 1.7420 150.0000 280.0000 97.7653 -83.4450 920
3.4840 1.7420 150.0000 285.0000 102.0544 -80.8403 921
3.4840 1.7420 150.0000 290.0000 106.3116 -78.1395 922
3.4840 1.7420 150.0000 295.0000 110.5258 -75.3070 923
3.4840 1.7420 150.0000 300.0000 114.6840 -72.3027 924
3.4840 1.7420 150.0000 305.0000 118.7705 -69.0803 925
3.4840 1.7420 150.0000 310.0000 122.7663 -65.5852 926
3.4840 1.7420 150.0000 315.0000 126.6475 -61.7532 927
3.4840 1.7420 150.0000 320.0000 130.3840 -57.5089 928
3.4840 1.7420 150.0000 325.0000 133.9380 -52.7654 929
3.4840 1.7420 150.0000 330.0000 137.2611 -47.4262 930
3.4840 1.7420 150.0000 335.0000 140.2932 -41.3925 931
3.4840 1.7420 150.0000 340.0000 142.9607 -34.5785 932
3.4840 1.7420 150.0000 345.0000 145.1780 -26.9390 933
3.4840 1.7420 150.0000 350.0000 146.8535 -18.5079 934
3.4840 1.7420 150.0000 355.0000 147.9011 -9.4357 935

3.4840 1.7420 155.0000 0.0000 153.2580 0.0000 936
3.4840 1.7420 155.0000 5.0000 152.8223 10.9953 937
3.4840 1.7420 155.0000 10.0000 151.5555 21.3709 938
3.4840 1.7420 155.0000 15.0000 149.5616 30.7069 939
3.4840 1.7420 155.0000 20.0000 146.9726 38.8456 940
3.4840 1.7420 155.0000 25.0000 143.9172 45.8274 941
3.4840 1.7420 155.0000 30.0000 140.5046 51.7929 942
3.4840 1.7420 155.0000 35.0000 136.8205 56.9111 943
3.4840 1.7420 155.0000 40.0000 132.9300 61.3417 944
3.4840 1.7420 155.0000 45.0000 128.8816 65.2220 945
3.4840 1.7420 155.0000 50.0000 124.7117 68.6644 946
3.4840 1.7420 155.0000 55.0000 120.4475 71.7594 947
3.4840 1.7420 155.0000 60.0000 116.1101 74.5797 948
3.4840 1.7420 155.0000 65.0000 111.7155 77.1843 949
3.4840 1.7420 155.0000 70.0000 107.2766 79.6211 950
3.4840 1.7420 155.0000 75.0000 102.8039 81.9306 951
3.4840 1.7420 155.0000 80.0000 98.3059 84.1472 952
3.4840 1.7420 155.0000 85.0000 93.7904 86.3014 953
3.4840 1.7420 155.0000 90.0000 89.2639 88.4211 954
3.4840 1.7420 155.0000 95.0000 84.7328 90.5331 955
3.4840 1.7420 155.0000 100.0000 80.2033 92.6641 956
3.4840 1.7420 155.0000 105.0000 75.6817 94.8416 957
3.4840 1.7420 155.0000 110.0000 71.1750 97.0961 958
3.4840 1.7420 155.0000 115.0000 66.6908 99.4618 959
3.4840 1.7420 155.0000 120.0000 62.2385 101.9789 960
3.4840 1.7420 155.0000 125.0000 57.8293 104.6961 961
3.4840 1.7420 155.0000 130.0000 53.4773 107.6738 962
3.4840 1.7420 155.0000 135.0000 49.2010 110.9887 963
3.4840 1.7420 155.0000 140.0000 45.0250 114.7391 964
3.4840 1.7420 155.0000 145.0000 40.9827 119.0524 965
3.4840 1.7420 155.0000 150.0000 37.1203 124.0929 966
3.4840 1.7420 155.0000 155.0000 33.5025 130.0668 967
3.4840 1.7420 155.0000 160.0000 30.2194 137.2170 968
3.4840 1.7420 155.0000 165.0000 27.3934 145.7870 969
3.4840 1.7420 155.0000 170.0000 25.1803 155.9241 970
3.4840 1.7420 155.0000 175.0000 23.7532 167.5096 971
3.4840 1.7420 155.0000 180.0000 23.2580 -180.0000 972
3.4840 1.7420 155.0000 185.0000 23.7532 -167.5096 973
3.4840 1.7420 155.0000 190.0000 25.1803 -155.9241 974
3.4840 1.7420 155.0000 195.0000 27.3934 -145.7870 975
3.4840 1.7420 155.0000 200.0000 30.2194 -137.2170 976
3.4840 1.7420 155.0000 205.0000 33.5025 -130.0668 977
3.4840 1.7420 155.0000 210.0000 37.1203 -124.0929 978
3.4840 1.7420 155.0000 215.0000 40.9827 -119.0524 979
3.4840 1.7420 155.0000 220.0000 45.0250 -114.7391 980
3.4840 1.7420 155.0000 225.0000 49.2010 -110.9887 981
3.4840 1.7420 155.0000 230.0000 53.4773 -107.6738 982
3.4840 1.7420 155.0000 235.0000 57.8293 -104.6961 983
3.4840 1.7420 155.0000 240.0000 62.2385 -101.9789 984
3.4840 1.7420 155.0000 245.0000 66.6908 -99.4618 985
3.4840 1.7420 155.0000 250.0000 71.1750 -97.0961 986
3.4840 1.7420 155.0000 255.0000 75.6817 -94.8416 987
3.4840 1.7420 155.0000 260.0000 80.2033 -92.6641 988
3.4840 1.7420 155.0000 265.0000 84.7328 -90.5331 989
3.4840 1.7420 155.0000 270.0000 89.2639 -88.4211 990
3.4840 1.7420 155.0000 275.0000 93.7904 -86.3014 991
3.4840 1.7420 155.0000 280.0000 98.3059 -84.1472 992
3.4840 1.7420 155.0000 285.0000 102.8039 -81.9306 993
3.4840 1.7420 155.0000 290.0000 107.2766 -79.6211 994
3.4840 1.7420 155.0000 295.0000 111.7155 -77.1843 995
3.4840 1.7420 155.0000 300.0000 116.1101 -74.5797 996
3.4840 1.7420 155.0000 305.0000 120.4476 -71.7594 997
3.4840 1.7420 155.0000 310.0000 124.7117 -68.6644 998
3.4840 1.7420 155.0000 315.0000 128.8816 -65.2220 999
3.4840 1.7420 155.0000 320.0000 132.9300 -61.3417 1000
3.4840 1.7420 155.0000 325.0000 136.8205 -56.9111 1001
3.4840 1.7420 155.0000 330.0000 140.5046 -51.7929 1002
3.4840 1.7420 155.0000 335.0000 143.9172 -45.8274 1003
3.4840 1.7420 155.0000 340.0000 146.9726 -38.8456 1004
3.4840 1.7420 155.0000 345.0000 149.5616 -30.7069 1005
3.4840 1.7420 155.0000 350.0000 151.5555 -21.3709 1006
3.4840 1.7420 155.0000 355.0000 152.8223 -10.9953 1007

3.4840 1.7420 160.0000 0.0000 158.2580 0.0000 1008
3.4840 1.7420 160.0000 5.0000 157.7117 13.2791 1009
3.4840 1.7420 160.0000 10.0000 156.1478 25.4182 1010
3.4840 1.7420 160.0000 15.0000 153.7479 35.7937 1011
3.4840 1.7420 160.0000 20.0000 150.7173 44.3416 1012
3.4840 1.7420 160.0000 25.0000 147.2311 51.3022 1013
3.4840 1.7420 160.0000 30.0000 143.4199 56.9941 1014
3.4840 1.7420 160.0000 35.0000 139.3760 61.7073 1015
3.4840 1.7420 160.0000 40.0000 135.1631 65.6740 1016
3.4840 1.7420 160.0000 45.0000 130.8256 69.0713 1017
3.4840 1.7420 160.0000 50.0000 126.3949 72.0323 1018
3.4840 1.7420 160.0000 55.0000 121.8933 74.6571 1019
3.4840 1.7420 160.0000 60.0000 117.3376 77.0219 1020
3.4840 1.7420 160.0000 65.0000 112.7400 79.1856 1021
3.4840 1.7420 160.0000 70.0000 108.1104 81.1950 1022
3.4840 1.7420 160.0000 75.0000 103.4561 83.0877 1023
3.4840 1.7420 160.0000 80.0000 98.7836 84.8955 1024
3.4840 1.7420 160.0000 85.0000 94.0981 86.6457 1025
3.4840 1.7420 160.0000 90.0000 89.4043 88.3630 1026
3.4840 1.7420 160.0000 95.0000 84.7064 90.0708 1027
3.4840 1.7420 160.0000 100.0000 80.0088 91.7921 1028
3.4840 1.7420 160.0000 105.0000 75.3156 93.5510 1029
3.4840 1.7420 160.0000 110.0000 70.6315 95.3741 1030
3.4840 1.7420 160.0000 115.0000 65.9619 97.2916 1031
3.4840 1.7420 160.0000 120.0000 61.3129 99.3396 1032
3.4840 1.7420 160.0000 125.0000 56.6924 101.5629 1033
3.4840 1.7420 160.0000 130.0000 52.1105 104.0191 1034
3.4840 1.7420 160.0000 135.0000 47.5806 106.7835 1035
3.4840 1.7420 160.0000 140.0000 43.1211 109.9581 1036
3.4840 1.7420 160.0000 145.0000 38.7584 113.6837 1037
3.4840 1.7420 160.0000 150.0000 34.5311 118.1574 1038
3.4840 1.7420 160.0000 155.0000 30.4972 123.6573 1039
3.4840 1.7420 160.0000 160.0000 26.7459 130.5679 1040
3.4840 1.7420 160.0000 165.0000 23.4150 139.3829 1041
3.4840 1.7420 160.0000 170.0000 20.7094 150.6055 1042
3.4840 1.7420 160.0000 175.0000 18.9007 164.3992 1043
3.4840 1.7420 160.0000 180.0000 18.2580 -180.0000 1044
3.4840 1.7420 160.0000 185.0000 18.9007 -164.3992 1045
3.4840 1.7420 160.0000 190.0000 20.7094 -150.6055 1046
3.4840 1.7420 160.0000 195.0000 23.4150 -139.3829 1047
3.4840 1.7420 160.0000 200.0000 26.7459 -130.5679 1048
3.4840 1.7420 160.0000 205.0000 30.4972 -123.6573 1049
3.4840 1.7420 160.0000 210.0000 34.5311 -118.1574 1050
3.4840 1.7420 160.0000 215.0000 38.7584 -113.6837 1051
3.4840 1.7420 160.0000 220.0000 43.1211 -109.9581 1052
3.4840 1.7420 160.0000 225.0000 47.5806 -106.7835 1053
3.4840 1.7420 160.0000 230.0000 52.1105 -104.0191 1054
3.4840 1.7420 160.0000 235.0000 56.6924 -101.5629 1055
3.4840 1.7420 160.0000 240.0000 61.3129 -99.3396 1056
3.4840 1.7420 160.0000 245.0000 65.9619 -97.2916 1057
3.4840 1.7420 160.0000 250.0000 70.6315 -95.3741 1058
3.4840 1.7420 160.0000 255.0000 75.3156 -93.5510 1059
3.4840 1.7420 160.0000 260.0000 80.0088 -91.7921 1060
3.4840 1.7420 160.0000 265.0000 84.7064 -90.0708 1061
3.4840 1.7420 160.0000 270.0000 89.4043 -88.3630 1062
3.4840 1.7420 160.0000 275.0000 94.0981 -86.6457 1063
3.4840 1.7420 160.0000 280.0000 98.7836 -84.8955 1064
3.4840 1.7420 160.0000 285.0000 103.4561 -83.0877 1065
3.4840 1.7420 160.0000 290.0000 108.1104 -81.1950 1066
3.4840 1.7420 160.0000 295.0000 112.7400 -79.1856 1067
3.4840 1.7420 160.0000 300.0000 117.3376 -77.0219 1068
3.4840 1.7420 160.0000 305.0000 121.8933 -74.6571 1069
3.4840 1.7420 160.0000 310.0000 126.3949 -72.0323 1070
3.4840 1.7420 160.0000 315.0000 130.8256 -69.0713 1071
3.4840 1.7420 160.0000 320.0000 135.1631 -65.6740 1072
3.4840 1.7420 160.0000 325.0000 139.3760 -61.7073 1073
3.4840 1.7420 160.0000 330.0000 143.4199 -56.9941 1074
3.4840 1.7420 160.0000 335.0000 147.2311 -51.3022 1075
3.4840 1.7420 160.0000 340.0000 150.7173 -44.3416 1076
3.4840 1.7420 160.0000 345.0000 153.7479 -35.7937 1077
3.4840 1.7420 160.0000 350.0000 156.1478 -25.4182 1078
3.4840 1.7420 160.0000 355.0000 157.7117 -13.2791 1079

3.4840 1.7420 165.0000 0.0000 163.2580 0.0000 1080
3.4840 1.7420 165.0000 5.0000 162.5421 16.8807 1081
3.4840 1.7420 165.0000 10.0000 160.5520 31.4195 1082
3.4840 1.7420 165.0000 15.0000 157.6252 42.8125 1083
3.4840 1.7420 165.0000 20.0000 154.0775 51.4455 1084
3.4840 1.7420 165.0000 25.0000 150.1295 58.0131 1085
3.4840 1.7420 165.0000 30.0000 145.9206 63.1131 1086
3.4840 1.7420 165.0000 35.0000 141.5367 67.1763 1087
3.4840 1.7420 165.0000 40.0000 137.0318 70.4984 1088
3.4840 1.7420 165.0000 45.0000 132.4409 73.2816 1089
3.4840 1.7420 165.0000 50.0000 127.7872 75.6663 1090
3.4840 1.7420 165.0000 55.0000 123.0868 77.7517 1091
3.4840 1.7420 165.0000 60.0000 118.3510 79.6102 1092
3.4840 1.7420 165.0000 65.0000 113.5883 81.2954 1093
3.4840 1.7420 165.0000 70.0000 108.8048 82.8488 1094
3.4840 1.7420 165.0000 75.0000 104.0056 84.3028 1095
3.4840 1.7420 165.0000 80.0000 99.1945 85.6843 1096
3.4840 1.7420 165.0000 85.0000 94.3747 87.0157 1097
3.4840 1.7420 165.0000 90.0000 89.5492 88.3173 1098
3.4840 1.7420 165.0000 95.0000 84.7205 89.6078 1099
3.4840 1.7420 165.0000 100.0000 79.8910 90.9056 1100
3.4840 1.7420 165.0000 105.0000 75.0633 92.2298 1101
3.4840 1.7420 165.0000 110.0000 70.2400 93.6015 1102
3.4840 1.7420 165.0000 115.0000 65.4242 95.0447 1103
3.4840 1.7420 165.0000 120.0000 60.6195 96.5889 1104
3.4840 1.7420 165.0000 125.0000 55.8304 98.2709 1105
3.4840 1.7420 165.0000 130.0000 51.0630 100.1388 1106
3.4840 1.7420 165.0000 135.0000 46.3252 102.2584 1107
3.4840 1.7420 165.0000 140.0000 41.6285 104.7215 1108
3.4840 1.7420 165.0000 145.0000 36.9898 107.6623 1109
3.4840 1.7420 165.0000 150.0000 32.4353 111.2826 1110
3.4840 1.7420 165.0000 155.0000 28.0071 115.8979 1111
3.4840 1.7420 165.0000 160.0000 23.7770 122.0139 1112
3.4840 1.7420 165.0000 165.0000 19.8728 130.4450 1113
3.4840 1.7420 165.0000 170.0000 16.5283 142.4029 1114
3.4840 1.7420 165.0000 175.0000 14.1467 159.1183 1115
3.4840 1.7420 165.0000 180.0000 13.2580 -180.0000 1116
3.4840 1.7420 165.0000 185.0000 14.1467 -159.1183 1117
3.4840 1.7420 165.0000 190.0000 16.5283 -142.4029 1118
3.4840 1.7420 165.0000 195.0000 19.8728 -130.4450 1119
3.4840 1.7420 165.0000 200.0000 23.7770 -122.0139 1120
3.4840 1.7420 165.0000 205.0000 28.0071 -115.8979 1121
3.4840 1.7420 165.0000 210.0000 32.4353 -111.2826 1122
3.4840 1.7420 165.0000 215.0000 36.9898 -107.6623 1123
3.4840 1.7420 165.0000 220.0000 41.6285 -104.7215 1124
3.4840 1.7420 165.0000 225.0000 46.3252 -102.2584 1125
3.4840 1.7420 165.0000 230.0000 51.0630 -100.1388 1126
3.4840 1.7420 165.0000 235.0000 55.8304 -98.2709 1127
3.4840 1.7420 165.0000 240.0000 60.6195 -96.5889 1128
3.4840 1.7420 165.0000 245.0000 65.4242 -95.0447 1129
3.4840 1.7420 165.0000 250.0000 70.2400 -93.6015 1130
3.4840 1.7420 165.0000 255.0000 75.0633 -92.2298 1131
3.4840 1.7420 165.0000 260.0000 79.8910 -90.9056 1132
3.4840 1.7420 165.0000 265.0000 84.7205 -89.6078 1133
3.4840 1.7420 165.0000 270.0000 89.5492 -88.3173 1134
3.4840 1.7420 165.0000 275.0000 94.3747 -87.0157 1135
3.4840 1.7420 165.0000 280.0000 99.1945 -85.6843 1136
3.4840 1.7420 165.0000 285.0000 104.0056 -84.3028 1137
3.4840 1.7420 165.0000 290.0000 108.8048 -82.8488 1138
3.4840 1.7420 165.0000 295.0000 113.5883 -81.2954 1139
3.4840 1.7420 165.0000 300.0000 118.3510 -79.6102 1140
3.4840 1.7420 165.0000 305.0000 123.0868 -77.7517 1141
3.4840 1.7420 165.0000 310.0000 127.7872 -75.6663 1142
3.4840 1.7420 165.0000 315.0000 132.4409 -73.2816 1143
3.4840 1.7420 165.0000 320.0000 137.0318 -70.4984 1144
3.4840 1.7420 165.0000 325.0000 141.5367 -67.1763 1145
3.4840 1.7420 165.0000 330.0000 145.9206 -63.1131 1146
3.4840 1.7420 165.0000 335.0000 150.1295 -58.0131 1147
3.4840 1.7420 165.0000 340.0000 154.0775 -51.4455 1148
3.4840 1.7420 165.0000 345.0000 157.6252 -42.8125 1149
3.4840 1.7420 165.0000 350.0000 160.5520 -31.4195 1150
3.4840 1.7420 165.0000 355.0000 162.5421 -16.8807 1151

3.4840 1.7420 170.0000 0.0000 168.2580 0.0000 1152
3.4840 1.7420 170.0000 5.0000 167.2463 23.2420 1153
3.4840 1.7420 170.0000 10.0000 164.6052 40.8299 1154
3.4840 1.7420 170.0000 15.0000 161.0025 52.6279 1155
3.4840 1.7420 170.0000 20.0000 156.8837 60.5481 1156
3.4840 1.7420 170.0000 25.0000 152.4798 66.0942 1157
3.4840 1.7420 170.0000 30.0000 147.9080 70.1672 1158
3.4840 1.7420 170.0000 35.0000 143.2310 73.2895 1159
3.4840 1.7420 170.0000 40.0000 138.4847 75.7730 1160
3.4840 1.7420 170.0000 45.0000 133.6906 77.8111 1161
3.4840 1.7420 170.0000 50.0000 128.8623 79.5295 1162
3.4840 1.7420 170.0000 55.0000 124.0090 81.0129 1163
3.4840 1.7420 170.0000 60.0000 119.1369 82.3205 1164
3.4840 1.7420 170.0000 65.0000 114.2505 83.4952 1165
3.4840 1.7420 170.0000 70.0000 109.3531 84.5689 1166
3.4840 1.7420 170.0000 75.0000 104.4474 85.5664 1167
3.4840 1.7420 170.0000 80.0000 99.5351 86.5075 1168
3.4840 1.7420 170.0000 85.0000 94.6181 87.4087 1169
3.4840 1.7420 170.0000 90.0000 89.6976 88.2844 1170
3.4840 1.7420 170.0000 95.0000 84.7748 89.1479 1171
3.4840 1.7420 170.0000 100.0000 79.8509 90.0118 1172
3.4840 1.7420 170.0000 105.0000 74.9271 90.8892 1173
3.4840 1.7420 170.0000 110.0000 70.0045 91.7945 1174
3.4840 1.7420 170.0000 115.0000 65.0843 92.7439 1175
3.4840 1.7420 170.0000 120.0000 60.1682 93.7573 1176
3.4840 1.7420 170.0000 125.0000 55.2581 94.8600 1177
3.4840 1.7420 170.0000 130.0000 50.3565 96.0853 1178
3.4840 1.7420 170.0000 135.0000 45.4669 97.4796 1179
3.4840 1.7420 170.0000 140.0000 40.5943 99.1099 1180
3.4840 1.7420 170.0000 145.0000 35.7462 101.0771 1181
3.4840 1.7420 170.0000 150.0000 30.9348 103.5426 1182
3.4840 1.7420 170.0000 155.0000 26.1809 106.7791 1183
3.4840 1.7420 170.0000 160.0000 21.5234 111.2821 1184
3.4840 1.7420 170.0000 165.0000 17.0420 118.0283 1185
3.4840 1.7420 170.0000 170.0000 12.9216 129.0879 1186
3.4840 1.7420 170.0000 175.0000 9.6379 148.6450 1187
3.4840 1.7420 170.0000 180.0000 8.2580 -180.0000 1188
3.4840 1.7420 170.0000 185.0000 9.6379 -148.6450 1189
3.4840 1.7420 170.0000 190.0000 12.9216 -129.0879 1190
3.4840 1.7420 170.0000 195.0000 17.0420 -118.0283 1191
3.4840 1.7420 170.0000 200.0000 21.5234 -111.2821 1192
3.4840 1.7420 170.0000 205.0000 26.1809 -106.7791 1193
3.4840 1.7420 170.0000 210.0000 30.9348 -103.5426 1194
3.4840 1.7420 170.0000 215.0000 35.7462 -101.0771 1195
3.4840 1.7420 170.0000 220.0000 40.5943 -99.1099 1196
3.4840 1.7420 170.0000 225.0000 45.4669 -97.4796 1197
3.4840 1.7420 170.0000 230.0000 50.3565 -96.0853 1198
3.4840 1.7420 170.0000 235.0000 55.2581 -94.8600 1199
3.4840 1.7420 170.0000 240.0000 60.1682 -93.7573 1200
3.4840 1.7420 170.0000 245.0000 65.0843 -92.7439 1201
3.4840 1.7420 170.0000 250.0000 70.0045 -91.7945 1202
3.4840 1.7420 170.0000 255.0000 74.9271 -90.8892 1203
3.4840 1.7420 170.0000 260.0000 79.8509 -90.0118 1204
3.4840 1.7420 170.0000 265.0000 84.7748 -89.1479 1205
3.4840 1.7420 170.0000 270.0000 89.6976 -88.2844 1206
3.4840 1.7420 170.0000 275.0000 94.6181 -87.4087 1207
3.4840 1.7420 170.0000 280.0000 99.5351 -86.5075 1208
3.4840 1.7420 170.0000 285.0000 104.4474 -85.5664 1209
3.4840 1.7420 170.0000 290.0000 109.3531 -84.5689 1210
3.4840 1.7420 170.0000 295.0000 114.2505 -83.4952 1211
3.4840 1.7420 170.0000 300.0000 119.1369 -82.3205 1212
3.4840 1.7420 170.0000 305.0000 124.0090 -81.0129 1213
3.4840 1.7420 170.0000 310.0000 128.8623 -79.5295 1214
3.4840 1.7420 170.0000 315.0000 133.6906 -77.8111 1215
3.4840 1.7420 170.0000 320.0000 138.4847 -75.7730 1216
3.4840 1.7420 170.0000 325.0000 143.2310 -73.2895 1217
3.4840 1.7420 170.0000 330.0000 147.9080 -70.1672 1218
3.4840 1.7420 170.0000 335.0000 152.4798 -66.0942 1219
3.4840 1.7420 170.0000 340.0000 156.8837 -60.5481 1220
3.4840 1.7420 170.0000 345.0000 161.0025 -52.6279 1221
3.4840 1.7420 170.0000 350.0000 164.6052 -40.8299 1222
3.4840 1.7420 170.0000 355.0000 167.2463 -23.2420 1223

3.4840 1.7420 175.0000 0.0000 173.2580 0.0000 1224
3.4840 1.7420 175.0000 5.0000 171.6092 36.6547 1225
3.4840 1.7420 175.0000 10.0000 167.9477 56.2270 1226
3.4840 1.7420 175.0000 15.0000 163.5680 66.1388 1227
3.4840 1.7420 175.0000 20.0000 158.9129 71.8384 1228
3.4840 1.7420 175.0000 25.0000 154.1308 75.5012 1229
3.4840 1.7420 175.0000 30.0000 149.2809 78.0550 1230
3.4840 1.7420 175.0000 35.0000 144.3909 79.9463 1231
3.4840 1.7420 175.0000 40.0000 139.4754 81.4131 1232
3.4840 1.7420 175.0000 45.0000 134.5427 82.5929 1233
3.4840 1.7420 175.0000 50.0000 129.5979 83.5709 1234
3.4840 1.7420 175.0000 55.0000 124.6443 84.4021 1235
3.4840 1.7420 175.0000 60.0000 119.6841 85.1243 1236
3.4840 1.7420 175.0000 65.0000 114.7189 85.7638 1237
3.4840 1.7420 175.0000 70.0000 109.7497 86.3401 1238
3.4840 1.7420 175.0000 75.0000 104.7775 86.8679 1239
3.4840 1.7420 175.0000 80.0000 99.8028 87.3587 1240
3.4840 1.7420 175.0000 85.0000 94.8263 87.8216 1241
3.4840 1.7420 175.0000 90.0000 89.8482 88.2646 1242
3.4840 1.7420 175.0000 95.0000 84.8690 88.6946 1243
3.4840 1.7420 175.0000 100.0000 79.8889 89.1179 1244
3.4840 1.7420 175.0000 105.0000 74.9083 89.5409 1245
3.4840 1.7420 175.0000 110.0000 69.9274 89.9702 1246
3.4840 1.7420 175.0000 115.0000 64.9465 90.4132 1247
3.4840 1.7420 175.0000 120.0000 59.9658 90.8786 1248
3.4840 1.7420 175.0000 125.0000 54.9858 91.3772 1249
3.4840 1.7420 175.0000 130.0000 50.0069 91.9234 1250
3.4840 1.7420 175.0000 135.0000 45.0297 92.5371 1251
3.4840 1.7420 175.0000 140.0000 40.0551 93.2471 1252
3.4840 1.7420 175.0000 145.0000 35.0843 94.0982 1253
3.4840 1.7420 175.0000 150.0000 30.1195 95.1634 1254
3.4840 1.7420 175.0000 155.0000 25.1644 96.5724 1255
3.4840 1.7420 175.0000 160.0000 20.2264 98.5798 1256
3.4840 1.7420 175.0000 165.0000 15.3222 101.7615 1257
3.4840 1.7420 175.0000 170.0000 10.4996 107.7348 1258
3.4840 1.7420 175.0000 175.0000 5.9600 122.9663 1259
3.4840 1.7420 175.0000 180.0000 3.2580 -180.0000 1260
3.4840 1.7420 175.0000 185.0000 5.9600 -122.9663 1261
3.4840 1.7420 175.0000 190.0000 10.4996 -107.7348 1262
3.4840 1.7420 175.0000 195.0000 15.3222 -101.7615 1263
3.4840 1.7420 175.0000 200.0000 20.2264 -98.5798 1264
3.4840 1.7420 175.0000 205.0000 25.1644 -96.5724 1265
3.4840 1.7420 175.0000 210.0000 30.1195 -95.1634 1266
3.4840 1.7420 175.0000 215.0000 35.0843 -94.0982 1267
3.4840 1.7420 175.0000 220.0000 40.0551 -93.2471 1268
3.4840 1.7420 175.0000 225.0000 45.0297 -92.5371 1269
3.4840 1.7420 175.0000 230.0000 50.0069 -91.9234 1270
3.4840 1.7420 175.0000 235.0000 54.9858 -91.3772 1271
3.4840 1.7420 175.0000 240.0000 59.9658 -90.8786 1272
3.4840 1.7420 175.0000 245.0000 64.9465 -90.4132 1273
3.4840 1.7420 175.0000 250.0000 69.9274 -89.9702 1274
3.4840 1.7420 175.0000 255.0000 74.9083 -89.5409 1275
3.4840 1.7420 175.0000 260.0000 79.8889 -89.1179 1276
3.4840 1.7420 175.0000 265.0000 84.8690 -88.6946 1277
3.4840 1.7420 175.0000 270.0000 89.8482 -88.2646 1278
3.4840 1.7420 175.0000 275.0000 94.8263 -87.8216 1279
3.4840 1.7420 175.0000 280.0000 99.8028 -87.3587 1280
3.4840 1.7420 175.0000 285.0000 104.7775 -86.8679 1281
3.4840 1.7420 175.0000 290.0000 109.7497 -86.3401 1282
3.4840 1.7420 175.0000 295.0000 114.7189 -85.7638 1283
3.4840 1.7420 175.0000 300.0000 119.6841 -85.1243 1284
3.4840 1.7420 175.0000 305.0000 124.6443 -84.4021 1285
3.4840 1.7420 175.0000 310.0000 129.5979 -83.5709 1286
3.4840 1.7420 175.0000 315.0000 134.5427 -82.5929 1287
3.4840 1.7420 175.0000 320.0000 139.4754 -81.4131 1288
3.4840 1.7420 175.0000 325.0000 144.3909 -79.9463 1289
3.4840 1.7420 175.0000 330.0000 149.2809 -78.0550 1290
3.4840 1.7420 175.0000 335.0000 154.1308 -75.5012 1291
3.4840 1.7420 175.0000 340.0000 158.9129 -71.8384 1292
3.4840 1.7420 175.0000 345.0000 163.5680 -66.1388 1293
3.4840 1.7420 175.0000 350.0000 167.9477 -56.2270 1294
3.4840 1.7420 175.0000 355.0000 171.6092 -36.6547 1295

3.4840 1.7420 180.0000 0.0000 178.2580 0.0000 1296
3.4840 1.7420 180.0000 5.0000 174.7060 70.7636 1297
3.4840 1.7420 180.0000 10.0000 169.8509 80.0659 1298
3.4840 1.7420 180.0000 15.0000 164.9015 83.2981 1299
3.4840 1.7420 180.0000 20.0000 159.9274 84.9185 1300
3.4840 1.7420 180.0000 25.0000 154.9433 85.8839 1301
3.4840 1.7420 180.0000 30.0000 149.9542 86.5192 1302
3.4840 1.7420 180.0000 35.0000 144.9622 86.9648 1303
3.4840 1.7420 180.0000 40.0000 139.9685 87.2911 1304
3.4840 1.7420 180.0000 45.0000 134.9735 87.5372 1305
3.4840 1.7420 180.0000 50.0000 129.9778 87.7265 1306
3.4840 1.7420 180.0000 55.0000 124.9815 87.8737 1307
3.4840 1.7420 180.0000 60.0000 119.9847 87.9887 1308
3.4840 1.7420 180.0000 65.0000 114.9877 88.0780 1309
3.4840 1.7420 180.0000 70.0000 109.9904 88.1463 1310
3.4840 1.7420 180.0000 75.0000 104.9929 88.1966 1311
3.4840 1.7420 180.0000 80.0000 99.9953 88.2311 1312
3.4840 1.7420 180.0000 85.0000 94.9977 88.2513 1313
3.4840 1.7420 180.0000 90.0000 90.0000 88.2580 1314
3.4840 1.7420 180.0000 95.0000 85.0023 88.2513 1315
3.4840 1.7420 180.0000 100.0000 80.0047 88.2311 1316
3.4840 1.7420 180.0000 105.0000 75.0071 88.1966 1317
3.4840 1.7420 180.0000 110.0000 70.0096 88.1463 1318
3.4840 1.7420 180.0000 115.0000 65.0123 88.0780 1319
3.4840 1.7420 180.0000 120.0000 60.0153 87.9887 1320
3.4840 1.7420 180.0000 125.0000 55.0185 87.8737 1321
3.4840 1.7420 180.0000 130.0000 50.0222 87.7265 1322
3.4840 1.7420 180.0000 135.0000 45.0265 87.5372 1323
3.4840 1.7420 180.0000 140.0000 40.0315 87.2911 1324
3.4840 1.7420 180.0000 145.0000 35.0378 86.9648 1325
3.4840 1.7420 180.0000 150.0000 30.0458 86.5192 1326
3.4840 1.7420 180.0000 155.0000 25.0567 85.8839 1327
3.4840 1.7420 180.0000 160.0000 20.0726 84.9185 1328
3.4840 1.7420 180.0000 165.0000 15.0985 83.2981 1329
3.4840 1.7420 180.0000 170.0000 10.1491 80.0659 1330
3.4840 1.7420 180.0000 175.0000 5.2940 70.7636 1331
3.4840 1.7420 180.0000 180.0000 1.7420 -0.0000 1332
3.4840 1.7420 180.0000 185.0000 5.2940 -70.7636 1333
3.4840 1.7420 180.0000 190.0000 10.1491 -80.0659 1334
3.4840 1.7420 180.0000 195.0000 15.0985 -83.2981 1335
3.4840 1.7420 180.0000 200.0000 20.0726 -84.9185 1336
3.4840 1.7420 180.0000 205.0000 25.0567 -85.8839 1337
3.4840 1.7420 180.0000 210.0000 30.0458 -86.5192 1338
3.4840 1.7420 180.0000 215.0000 35.0378 -86.9648 1339
3.4840 1.7420 180.0000 220.0000 40.0315 -87.2911 1340
3.4840 1.7420 180.0000 225.0000 45.0265 -87.5372 1341
3.4840 1.7420 180.0000 230.0000 50.0222 -87.7265 1342
3.4840 1.7420 180.0000 235.0000 55.0185 -87.8737 1343
3.4840 1.7420 180.0000 240.0000 60.0153 -87.9887 1344
3.4840 1.7420 180.0000 245.0000 65.0123 -88.0780 1345
3.4840 1.7420 180.0000 250.0000 70.0096 -88.1463 1346
3.4840 1.7420 180.0000 255.0000 75.0071 -88.1966 1347
3.4840 1.7420 180.0000 260.0000 80.0047 -88.2311 1348
3.4840 1.7420 180.0000 265.0000 85.0023 -88.2513 1349
3.4840 1.7420 180.0000 270.0000 90.0000 -88.2580 1350
3.4840 1.7420 180.0000 275.0000 94.9977 -88.2513 1351
3.4840 1.7420 180.0000 280.0000 99.9953 -88.2311 1352
3.4840 1.7420 180.0000 285.0000 104.9929 -88.1966 1353
3.4840 1.7420 180.0000 290.0000 109.9904 -88.1463 1354
3.4840 1.7420 180.0000 295.0000 114.9877 -88.0780 1355
3.4840 1.7420 180.0000 300.0000 119.9847 -87.9887 1356
3.4840 1.7420 180.0000 305.0000 124.9815 -87.8737 1357
3.4840 1.7420 180.0000 310.0000 129.9778 -87.7265 1358
3.4840 1.7420 180.0000 315.0000 134.9735 -87.5372 1359
3.4840 1.7420 180.0000 320.0000 139.9685 -87.2911 1360
3.4840 1.7420 180.0000 325.0000 144.9622 -86.9648 1361
3.4840 1.7420 180.0000 330.0000 149.9542 -86.5192 1362
3.4840 1.7420 180.0000 335.0000 154.9433 -85.8839 1363
3.4840 1.7420 180.0000 340.0000 159.9274 -84.9185 1364
3.4840 1.7420 180.0000 345.0000 164.9015 -83.2981 1365
3.4840 1.7420 180.0000 350.0000 169.8509 -80.0659 1366
3.4840 1.7420 180.0000 355.0000 174.7060 -70.7636 1367

